COUNTER,AF3,F7,F3, FC5, T7, P7, O1, O2,P8, T8, FC6, F4,F8, AF4,GYROX, GYROY, TIMESTAMP, FUNC_ID, FUNC_VALUE, MARKER, SYNC_SIGNAL,
29,4186.67,4184.1,4184.1,4186.15,4183.08,4183.59,4181.54,4181.54,4189.23,4191.28,4242.05,4955.38,4184.62,4191.79,2044,2037,88.143,0,0,0,0,
30,4187.69,4184.62,4181.54,4178.97,4180.51,4180,4179.49,4185.64,4187.69,4191.79,4240,4948.21,4187.69,4191.79,2043,2038,88.151,0,0,0,0,
31,4174.87,4177.95,4185.64,4182.56,4184.1,4182.05,4184.1,4184.1,4181.54,4193.33,4237.95,4946.15,4174.36,4184.1,2044,2037,88.158,0,0,0,0,
32,4194.36,4188.21,4184.62,4183.59,4176.92,4174.36,4172.82,4185.64,4189.23,4194.87,4241.54,4951.79,4193.85,4196.92,2043,2038,88.167,0,0,0,0,
33,4178.97,4176.92,4182.56,4183.08,4183.59,4182.05,4185.64,4185.13,4188.21,4190.26,4236.41,4948.21,4183.59,4187.69,2044,2038,88.174,0,0,0,0,
34,4186.67,4182.05,4187.69,4185.64,4183.08,4185.64,4183.08,4178.97,4184.62,4192.31,4243.59,4951.28,4186.67,4189.23,2045,2038,88.182,0,0,0,0,
35,4187.18,4186.67,4181.54,4180,4178.46,4181.03,4175.38,4181.03,4193.33,4196.41,4244.1,4946.15,4190.26,4191.28,2045,2038,88.19,0,0,0,0,
36,4172.31,4178.97,4183.59,4185.13,4182.56,4182.05,4183.59,4184.1,4189.23,4188.72,4239.49,4949.23,4176.41,4187.18,2044,2037,88.198,0,0,0,0,
37,4193.85,4186.15,4186.15,4186.15,4177.95,4174.36,4174.87,4188.21,4190.26,4186.15,4244.1,4953.33,4195.9,4196.92,2045,2038,88.207,0,0,0,0,
38,4178.46,4177.95,4181.03,4183.08,4183.59,4180.51,4180.51,4187.18,4188.21,4188.21,4239.49,4945.64,4183.08,4184.1,2045,2038,88.215,0,0,0,0,
39,4184.1,4183.08,4185.13,4185.13,4182.56,4183.08,4178.46,4181.54,4186.67,4188.72,4241.54,4950.26,4182.05,4188.21,2044,2039,88.221,0,0,0,0,
40,4192.31,4182.56,4183.08,4182.56,4176.92,4176.92,4176.41,4186.67,4194.87,4190.26,4241.54,4947.18,4190.77,4193.33,2044,2039,88.231,0,0,0,0,
41,4177.44,4172.31,4185.13,4186.15,4184.62,4182.56,4186.15,4185.13,4188.21,4189.74,4239.49,4946.67,4174.36,4184.62,2044,2037,88.238,0,0,0,0,
42,4194.87,4187.69,4188.21,4183.08,4180,4177.44,4172.31,4181.03,4189.23,4191.79,4243.59,4952.82,4189.23,4198.46,2044,2037,88.253,0,0,0,0,
43,4176.92,4180.51,4180,4180,4181.54,4180,4181.03,4184.1,4188.21,4192.31,4236.92,4948.72,4180.51,4189.74,2045,2037,88.259,0,0,0,0,
44,4180,4181.03,4182.56,4187.69,4185.13,4181.03,4184.62,4184.1,4183.59,4190.77,4241.03,4950.77,4182.05,4187.18,2045,2038,88.262,0,0,0,0,
45,4189.23,4187.18,4182.05,4184.62,4182.05,4176.41,4172.82,4185.64,4189.74,4193.33,4242.05,4944.62,4194.36,4192.82,2045,2038,88.27,0,0,0,0,
46,4167.69,4177.95,4184.1,4184.62,4183.08,4183.59,4182.05,4182.56,4186.67,4191.79,4236.41,4947.69,4176.92,4184.62,2044,2037,88.276,0,0,0,0,
47,4189.23,4186.67,4187.18,4184.62,4175.9,4182.05,4178.97,4181.54,4188.21,4192.31,4243.59,4956.92,4192.82,4195.38,2044,2037,88.285,0,0,0,0,
48,4181.54,4178.97,4177.95,4183.59,4181.54,4183.59,4183.59,4185.13,4187.69,4192.31,4239.49,4946.15,4184.62,4188.72,2045,2038,88.292,0,0,0,0,
49,4178.97,4180,4183.59,4189.74,4183.59,4183.08,4179.49,4182.05,4181.54,4189.74,4240,4949.23,4177.44,4188.21,2043,2038,88.301,0,0,0,0,
50,4190.26,4188.72,4184.62,4183.08,4176.92,4177.95,4174.87,4184.1,4190.26,4190.26,4243.08,4952.31,4192.31,4194.87,2044,2038,88.308,0,0,0,0,
51,4174.36,4175.38,4181.54,4183.08,4183.08,4184.1,4190.26,4184.1,4188.72,4187.69,4240,4951.28,4175.9,4183.59,2044,2037,88.317,0,0,0,0,
52,4190.77,4183.59,4184.1,4185.13,4178.46,4179.49,4178.46,4184.62,4186.67,4190.26,4245.13,4952.82,4187.18,4193.85,2044,2038,88.324,0,0,0,0,
53,4178.97,4184.1,4180,4182.05,4181.54,4181.54,4179.49,4188.21,4188.21,4188.72,4238.46,4944.1,4184.1,4187.18,2045,2037,88.332,0,0,0,0,
54,4177.44,4182.05,4185.64,4187.18,4184.62,4186.15,4185.64,4183.08,4185.64,4185.64,4236.41,4949.23,4180.51,4184.1,2045,2038,88.34,0,0,0,0,
55,4195.9,4184.1,4185.13,4182.56,4176.92,4177.44,4177.95,4183.08,4192.31,4193.33,4241.54,4951.28,4197.44,4194.87,2044,2037,88.347,0,0,0,0,
56,4176.41,4173.85,4181.03,4183.59,4182.56,4182.56,4189.23,4183.08,4187.69,4193.33,4238.97,4948.21,4180.51,4186.15,2044,2038,88.355,0,0,0,0,
57,4190.26,4187.69,4185.13,4186.15,4178.97,4182.56,4182.05,4181.54,4185.64,4190.77,4242.56,4951.28,4189.23,4194.87,2044,2038,88.363,0,0,0,0,
58,4183.59,4183.08,4182.56,4182.05,4177.95,4181.54,4179.49,4187.18,4189.23,4191.28,4237.44,4943.59,4187.69,4189.23,2045,2037,88.372,0,0,0,0,
59,4176.92,4175.9,4184.62,4187.18,4182.56,4182.56,4185.13,4186.67,4185.13,4191.79,4239.49,4948.72,4176.92,4184.1,2044,2037,88.379,0,0,0,0,
60,4194.36,4187.69,4180.51,4184.1,4175.9,4175.9,4176.92,4187.18,4190.77,4191.79,4246.15,4953.33,4194.36,4194.36,2045,2037,88.387,0,0,0,0,
61,4174.87,4180.51,4178.46,4183.59,4182.05,4183.08,4184.1,4187.18,4187.69,4189.23,4238.46,4947.18,4177.95,4184.1,2044,2038,88.395,0,0,0,0,
62,4188.21,4185.64,4186.67,4185.13,4182.05,4183.59,4176.92,4183.08,4186.15,4192.82,4241.54,4951.28,4182.56,4191.28,2044,2038,88.403,0,0,0,0,
63,4186.67,4180.51,4181.54,4178.97,4179.49,4180.51,4177.95,4186.67,4190.77,4193.85,4241.54,4949.23,4189.23,4191.28,2045,2039,88.41,0,0,0,0,
64,4177.95,4176.41,4183.08,4183.59,4184.62,4183.59,4185.13,4186.15,4183.59,4188.21,4243.59,4952.31,4184.1,4186.67,2044,2038,88.418,0,0,0,0,
65,4197.44,4187.69,4185.64,4182.56,4181.03,4177.44,4175.38,4185.13,4187.69,4190.26,4248.72,4952.31,4197.44,4195.38,2044,2037,88.426,0,0,0,0,
66,4174.36,4173.85,4182.56,4181.54,4183.59,4182.05,4185.13,4183.08,4187.69,4192.82,4238.97,4944.62,4177.44,4184.1,2046,2038,88.434,0,0,0,0,
67,4184.62,4183.08,4185.64,4186.15,4178.97,4181.03,4177.95,4181.03,4185.64,4192.82,4240,4951.79,4186.15,4191.79,2045,2038,88.442,0,0,0,0,
68,4190.77,4190.26,4180.51,4184.1,4178.97,4177.44,4176.41,4185.64,4190.26,4190.26,4238.97,4950.77,4190.77,4193.85,2044,2038,88.45,0,0,0,0,
69,4175.9,4181.54,4182.56,4186.67,4185.64,4183.59,4188.21,4183.59,4184.1,4188.72,4240.51,4950.77,4171.79,4185.13,2044,2038,88.458,0,0,0,0,
70,4194.36,4187.69,4184.62,4184.1,4177.44,4181.03,4175.9,4184.1,4187.69,4193.33,4246.15,4954.36,4190.26,4194.87,2044,2036,88.466,0,0,0,0,
71,4180.51,4175.38,4181.54,4183.08,4180,4185.13,4182.05,4186.67,4189.23,4191.79,4237.95,4951.28,4181.54,4185.64,2044,2038,88.475,0,0,0,0,
72,4184.1,4179.49,4187.69,4186.15,4180.51,4181.54,4182.56,4182.56,4188.21,4190.26,4242.05,4954.87,4183.08,4190.26,2044,2037,88.483,0,0,0,0,
73,4184.1,4186.15,4183.08,4180.51,4178.46,4177.44,4180.51,4184.1,4191.28,4195.38,4242.05,4946.67,4188.72,4192.31,2045,2038,88.489,0,0,0,0,
74,4171.28,4178.97,4182.05,4186.15,4185.13,4184.1,4188.21,4181.54,4183.08,4192.31,4236.92,4948.72,4174.87,4183.08,2044,2037,88.499,0,0,0,0,
75,4193.85,4184.1,4184.1,4185.13,4181.03,4177.44,4174.36,4181.03,4188.72,4189.74,4242.56,4954.36,4191.79,4195.38,2045,2037,88.505,0,0,0,0,
76,4175.38,4176.41,4181.54,4180,4184.1,4181.03,4181.54,4185.13,4191.79,4191.28,4239.49,4942.56,4179.49,4189.23,2044,2037,88.513,0,0,0,0,
77,4180,4184.1,4187.18,4184.1,4181.54,4184.62,4185.13,4182.56,4184.62,4191.79,4243.08,4946.67,4178.97,4189.23,2044,2038,88.521,0,0,0,0,
78,4192.82,4188.21,4181.54,4181.54,4175.9,4179.49,4178.97,4182.56,4188.21,4192.31,4242.56,4947.69,4191.79,4190.26,2045,2038,88.529,0,0,0,0,
79,4174.36,4173.85,4182.05,4186.15,4184.62,4182.56,4185.64,4182.05,4183.08,4187.18,4237.44,4947.18,4175.38,4183.59,2045,2039,88.537,0,0,0,0,
80,4189.23,4183.08,4186.67,4186.15,4180,4177.95,4175.38,4184.62,4185.64,4188.72,4242.56,4951.79,4189.74,4196.92,2045,2038,88.544,0,0,0,0,
81,4176.41,4180.51,4182.05,4180,4181.03,4181.54,4180,4188.21,4188.21,4191.79,4237.44,4947.18,4184.1,4186.67,2045,2039,88.552,0,0,0,0,
82,4181.54,4184.62,4187.18,4183.08,4184.1,4183.59,4181.54,4180.51,4185.64,4190.77,4239.49,4951.28,4178.97,4186.15,2044,2038,88.56,0,0,0,0,
83,4192.82,4188.72,4186.15,4182.56,4180,4178.46,4175.9,4182.05,4192.31,4192.31,4242.56,4947.69,4190.26,4194.36,2045,2038,88.568,0,0,0,0,
84,4169.74,4174.36,4185.13,4187.18,4183.08,4184.62,4187.69,4186.15,4188.21,4189.74,4237.95,4946.67,4175.38,4184.62,2044,2038,88.577,0,0,0,0,
85,4188.21,4187.18,4186.15,4186.15,4176.92,4179.49,4177.44,4185.13,4188.72,4190.26,4244.62,4952.31,4189.74,4195.9,2044,2038,88.584,0,0,0,0,
86,4181.03,4183.08,4181.54,4181.54,4179.49,4180,4181.03,4183.08,4189.74,4188.72,4241.03,4946.15,4183.59,4189.74,2045,2037,88.592,0,0,0,0,
87,4176.41,4177.44,4186.67,4188.21,4184.1,4184.1,4186.15,4180.51,4184.1,4185.64,4242.56,4950.26,4178.46,4186.67,2044,2038,88.6,0,0,0,0,
88,4190.77,4185.64,4183.08,4184.62,4180,4180,4174.87,4185.64,4190.77,4188.72,4245.13,4947.69,4193.33,4195.9,2044,2038,88.609,0,0,0,0,
89,4173.33,4177.44,4180.51,4182.56,4184.1,4184.62,4183.08,4184.62,4186.67,4188.72,4236.92,4941.54,4174.87,4185.64,2044,2037,88.616,0,0,0,0,
90,4188.21,4185.64,4187.69,4186.15,4180,4178.97,4178.46,4182.05,4186.15,4190.77,4241.54,4950.26,4185.13,4194.87,2045,2037,88.623,0,0,0,0,
91,4183.59,4180,4182.56,4184.1,4182.56,4178.46,4181.54,4185.13,4191.28,4190.77,4240.51,4948.21,4185.13,4190.77,2044,2037,88.632,0,0,0,0,
92,4180.51,4178.46,4182.56,4185.64,4184.1,4182.56,4183.08,4181.03,4184.62,4188.72,4238.46,4948.72,4176.92,4186.15,2045,2037,88.639,0,0,0,0,
93,4193.85,4190.77,4184.1,4181.54,4175.9,4176.92,4170.26,4182.56,4187.18,4191.28,4241.03,4945.13,4191.28,4195.9,2044,2037,88.647,0,0,0,0,
94,4173.85,4180,4186.15,4183.08,4182.56,4186.67,4184.1,4186.15,4186.67,4189.74,4238.97,4944.1,4178.46,4184.62,2044,2037,88.655,0,0,0,0,
95,4190.77,4185.64,4191.28,4185.64,4179.49,4184.1,4182.05,4183.59,4188.21,4190.77,4243.59,4952.82,4188.72,4190.26,2045,2038,88.663,0,0,0,0,
96,4184.62,4183.08,4184.62,4179.49,4178.97,4177.95,4177.95,4184.1,4193.33,4192.82,4239.49,4944.62,4186.67,4188.72,2046,2039,88.67,0,0,0,0,
97,4173.33,4177.44,4187.18,4185.64,4183.08,4184.1,4181.03,4181.03,4186.67,4190.26,4240.51,4948.21,4176.92,4186.15,2044,2037,88.678,0,0,0,0,
98,4193.85,4186.15,4185.13,4184.62,4177.44,4177.95,4175.9,4185.64,4189.23,4190.77,4245.64,4952.82,4196.41,4197.44,2044,2037,88.686,0,0,0,0,
99,4174.87,4175.38,4177.44,4183.08,4184.62,4179.49,4188.72,4186.67,4187.69,4190.26,4238.97,4945.64,4177.95,4185.64,2045,2037,88.694,0,0,0,0,
100,4186.67,4185.64,4182.56,4186.67,4183.59,4183.08,4181.03,4178.97,4186.67,4192.31,4243.08,4951.28,4182.56,4191.79,2045,2038,88.702,0,0,0,0,
101,4189.23,4186.67,4181.54,4183.08,4178.97,4182.56,4177.44,4183.59,4190.77,4191.28,4240,4949.23,4190.26,4191.28,2044,2039,88.71,0,0,0,0,
102,4176.92,4176.41,4185.13,4188.21,4183.59,4181.54,4184.62,4187.18,4185.64,4189.23,4237.44,4949.23,4175.9,4183.59,2043,2037,88.718,0,0,0,0,
103,4195.38,4185.13,4186.15,4184.62,4179.49,4175.38,4174.36,4186.67,4190.77,4192.31,4244.1,4949.23,4191.28,4193.33,2043,2038,88.727,0,0,0,0,
104,4176.92,4178.97,4182.05,4181.03,4183.08,4182.56,4185.64,4183.59,4188.21,4188.21,4237.44,4944.62,4180.51,4183.08,2045,2037,88.734,0,0,0,0,
105,4183.59,4183.59,4185.64,4184.62,4182.56,4182.56,4182.05,4181.03,4184.62,4185.64,4240.51,4951.28,4184.1,4190.26,2044,2036,88.741,0,0,0,0,
106,4188.72,4181.54,4182.56,4181.03,4181.03,4178.46,4175.38,4184.62,4188.72,4191.79,4241.54,4946.15,4191.28,4194.36,2044,2038,88.749,0,0,0,0,
107,4173.85,4172.82,4186.15,4185.64,4184.1,4182.56,4186.67,4182.05,4183.08,4191.79,4239.49,4944.62,4178.46,4185.13,2044,2037,88.758,0,0,0,0,
108,4192.31,4187.69,4186.67,4185.13,4176.92,4177.44,4177.44,4183.08,4186.67,4192.82,4244.62,4947.69,4195.38,4195.9,2044,2037,88.765,0,0,0,0,
109,4177.95,4179.49,4180,4182.05,4182.05,4181.54,4182.05,4186.67,4186.67,4192.82,4237.95,4944.62,4181.03,4187.18,2044,2038,88.773,0,0,0,0,
110,4184.62,4181.54,4185.64,4185.13,4182.05,4181.54,4177.44,4182.56,4182.56,4191.79,4240,4950.26,4179.49,4187.69,2045,2038,88.781,0,0,0,0,
111,4189.23,4188.72,4182.56,4181.54,4177.95,4177.44,4172.31,4185.13,4188.72,4195.9,4241.54,4945.13,4192.31,4191.79,2045,2038,88.789,0,0,0,0,
112,4170.26,4180,4183.59,4186.15,4184.62,4184.1,4187.69,4185.64,4185.64,4193.33,4237.44,4947.18,4175.9,4184.62,2044,2038,88.798,0,0,0,0,
113,4192.31,4184.1,4187.69,4186.15,4180,4176.41,4177.44,4183.59,4187.69,4191.28,4241.03,4951.79,4187.69,4194.36,2045,2038,88.805,0,0,0,0,
114,4182.05,4173.85,4182.56,4182.56,4183.59,4177.95,4178.97,4185.13,4185.64,4191.28,4236.92,4943.08,4178.97,4184.62,2045,2038,88.812,0,0,0,0,
115,4184.1,4180,4186.15,4189.74,4185.13,4184.1,4181.54,4182.56,4180.51,4191.28,4241.54,4950.26,4178.97,4188.21,2044,2038,88.82,0,0,0,0,
116,4190.77,4187.18,4183.08,4184.1,4178.46,4180.51,4177.95,4185.13,4190.77,4191.79,4243.08,4948.72,4190.26,4196.41,2044,2038,88.828,0,0,0,0,
117,4171.28,4176.92,4184.62,4183.08,4184.1,4184.1,4186.15,4182.56,4187.18,4188.72,4237.95,4943.59,4174.36,4185.13,2044,2037,88.837,0,0,0,0,
118,4193.33,4189.23,4188.72,4186.67,4180.51,4178.46,4174.36,4181.54,4184.62,4192.31,4242.56,4949.74,4190.77,4193.85,2044,2038,88.844,0,0,0,0,
119,4179.49,4181.03,4179.49,4185.13,4180.51,4180.51,4181.03,4185.64,4187.18,4194.36,4236.92,4945.64,4183.59,4189.23,2043,2038,88.853,0,0,0,0,
120,4174.87,4177.95,4184.62,4188.21,4181.54,4186.15,4184.62,4182.05,4185.64,4190.77,4239.49,4948.21,4177.44,4187.69,2044,2038,88.86,0,0,0,0,
121,4192.31,4185.64,4186.67,4184.1,4177.95,4181.54,4175.9,4183.08,4192.82,4190.77,4245.13,4946.67,4191.28,4191.79,2044,2037,88.868,0,0,0,0,
122,4173.85,4174.87,4182.05,4186.15,4184.1,4184.1,4186.15,4183.08,4186.67,4188.72,4238.46,4946.15,4175.38,4181.54,2044,2037,88.875,0,0,0,0,
123,4186.67,4185.13,4182.05,4187.18,4178.97,4177.95,4176.41,4183.08,4183.59,4190.77,4242.56,4952.31,4188.72,4194.87,2044,2037,88.884,0,0,0,0,
124,4181.03,4181.54,4181.03,4181.54,4181.03,4179.49,4179.49,4185.64,4187.69,4190.77,4242.56,4945.64,4184.1,4191.28,2044,2038,88.891,0,0,0,0,
125,4178.46,4177.44,4187.69,4183.59,4183.08,4184.1,4186.67,4180.51,4187.18,4187.69,4244.1,4947.18,4175.9,4186.67,2046,2038,88.9,0,0,0,0,
126,4191.28,4186.67,4183.59,4180.51,4175.9,4176.41,4177.44,4183.59,4191.28,4189.74,4241.54,4945.64,4193.33,4194.36,2046,2038,88.907,0,0,0,0,
127,4171.79,4179.49,4181.03,4184.62,4184.62,4183.08,4185.13,4184.1,4182.05,4188.72,4235.38,4943.08,4175.9,4186.15,2045,2037,88.915,0,0,0,0,
128,4188.72,4186.67,4187.18,4186.67,4183.08,4179.49,4176.41,4178.97,4183.59,4188.72,4245.64,4950.26,4185.13,4197.44,2045,2037,88.923,0,0,0,0,
0,4185.64,4179.49,4182.05,4178.97,4180.51,4176.92,4178.97,4181.54,4192.31,4189.23,4243.59,4943.08,4187.18,4190.26,2044,2037,88.931,0,0,0,0,
1,4175.9,4175.38,4185.13,4185.13,4184.62,4185.13,4188.21,4181.03,4184.1,4189.23,4240.51,4946.67,4176.41,4182.56,2044,2038,88.938,0,0,0,0,
2,4191.79,4189.23,4184.62,4184.62,4181.54,4181.03,4174.87,4183.08,4187.69,4195.38,4244.1,4951.28,4193.33,4195.9,2044,2039,88.946,0,0,0,0,
3,4174.87,4179.49,4181.03,4183.08,4184.62,4181.54,4182.05,4182.56,4189.23,4192.31,4238.46,4945.13,4179.49,4186.67,2044,2038,88.954,0,0,0,0,
4,4189.23,4184.62,4186.15,4185.64,4177.95,4177.44,4180.51,4180,4187.69,4187.18,4242.05,4947.69,4184.1,4192.82,2044,2038,88.963,0,0,0,0,
5,4186.15,4184.62,4182.56,4182.56,4175.38,4178.46,4180.51,4185.13,4189.74,4188.72,4240.51,4945.13,4185.13,4192.31,2045,2038,88.97,0,0,0,0,
6,4173.85,4181.54,4184.62,4188.21,4183.59,4186.15,4184.1,4184.62,4184.62,4191.28,4240,4948.72,4176.92,4186.67,2044,2037,88.978,0,0,0,0,
7,4193.33,4190.77,4186.15,4185.13,4181.03,4180,4173.33,4185.13,4189.23,4194.87,4243.08,4948.21,4196.41,4195.9,2043,2038,88.986,0,0,0,0,
8,4173.85,4178.46,4182.05,4180.51,4186.15,4183.08,4184.1,4186.67,4187.69,4191.79,4235.9,4943.08,4178.46,4184.62,2044,2037,88.994,0,0,0,0,
9,4185.64,4185.64,4186.15,4184.1,4182.56,4181.54,4180.51,4182.56,4186.15,4188.21,4241.54,4950.77,4181.54,4189.74,2044,2038,89.002,0,0,0,0,
10,4190.26,4187.69,4184.62,4181.54,4179.49,4178.46,4178.97,4185.13,4191.79,4191.79,4242.56,4944.62,4188.72,4191.79,2044,2038,89.009,0,0,0,0,
11,4174.87,4178.97,4187.69,4184.62,4184.62,4184.1,4187.69,4183.59,4185.64,4194.36,4239.49,4947.69,4174.36,4185.13,2045,2039,89.018,0,0,0,0,
12,4192.82,4189.74,4185.64,4183.08,4178.46,4176.92,4173.33,4184.1,4188.21,4193.85,4245.64,4954.36,4193.85,4195.9,2044,2038,89.027,0,0,0,0,
13,4173.85,4181.03,4178.46,4183.59,4182.56,4180.51,4181.54,4185.13,4189.23,4189.74,4238.46,4944.1,4183.08,4185.64,2044,2036,89.033,0,0,0,0,
14,4179.49,4185.13,4187.18,4186.67,4182.56,4184.1,4183.59,4182.05,4186.67,4192.31,4240.51,4947.69,4181.54,4188.21,2044,2037,89.042,0,0,0,0,
15,4189.23,4188.72,4186.67,4180.51,4179.49,4178.97,4175.9,4184.1,4190.77,4197.44,4243.08,4947.18,4190.26,4193.33,2044,2038,89.051,0,0,0,0,
16,4174.87,4176.92,4184.62,4186.67,4186.15,4183.08,4182.05,4182.05,4185.13,4191.79,4240,4947.69,4176.92,4187.18,2044,2039,89.057,0,0,0,0,
17,4193.33,4185.64,4185.64,4186.67,4181.03,4180,4176.41,4184.1,4188.72,4191.28,4243.59,4951.28,4191.79,4195.9,2045,2039,89.064,0,0,0,0,
18,4178.46,4179.49,4182.05,4180.51,4184.1,4182.56,4188.21,4187.18,4188.72,4191.79,4239.49,4945.64,4181.54,4184.62,2044,2038,89.072,0,0,0,0,
19,4181.54,4183.08,4185.13,4185.13,4182.56,4180.51,4185.13,4183.08,4184.62,4190.77,4242.05,4950.26,4182.05,4189.23,2044,2038,89.08,0,0,0,0,
20,4189.23,4188.21,4181.03,4183.08,4176.41,4176.41,4174.36,4187.69,4189.74,4194.87,4240.51,4947.18,4191.79,4195.38,2045,2038,89.088,0,0,0,0,
21,4171.79,4176.92,4182.05,4185.13,4184.1,4186.15,4185.64,4187.69,4183.08,4188.72,4237.44,4947.18,4173.33,4180,2045,2037,89.097,0,0,0,0,
22,4190.77,4185.13,4185.13,4185.13,4180,4180.51,4178.46,4184.62,4186.67,4185.13,4244.62,4952.31,4189.74,4189.74,2045,2037,89.104,0,0,0,0,
23,4175.38,4179.49,4178.97,4183.08,4182.05,4181.03,4183.59,4185.13,4190.77,4188.21,4238.97,4945.13,4183.59,4185.64,2044,2038,89.112,0,0,0,0,
24,4177.95,4179.49,4184.62,4186.67,4187.18,4186.15,4185.13,4179.49,4183.59,4190.77,4240,4950.77,4177.44,4187.18,2045,2038,89.149,0,0,0,0,
25,4195.38,4183.59,4183.59,4181.03,4184.1,4180,4178.46,4181.03,4188.21,4192.31,4241.54,4949.74,4191.79,4196.92,2046,2038,89.153,0,0,0,0,
26,4173.33,4172.82,4181.54,4184.1,4185.64,4182.56,4188.21,4181.54,4186.15,4188.21,4235.9,4944.62,4175.38,4185.64,2045,2037,89.153,0,0,0,0,
27,4189.74,4184.62,4184.62,4185.64,4179.49,4179.49,4176.92,4180.51,4185.64,4189.74,4243.08,4949.74,4185.13,4191.79,2043,2037,89.153,0,0,0,0,
28,4183.59,4180,4178.97,4179.49,4183.08,4181.54,4180,4184.62,4186.67,4192.82,4240.51,4945.64,4182.05,4187.18,2044,2039,89.157,0,0,0,0,
29,4175.9,4177.95,4183.59,4185.64,4188.21,4182.05,4184.1,4183.59,4181.03,4191.28,4240,4950.26,4180,4187.18,2044,2037,89.16,0,0,0,0,
30,4191.28,4187.69,4183.59,4185.64,4182.56,4175.9,4173.85,4188.21,4187.69,4191.79,4242.56,4950.26,4192.31,4192.82,2044,2038,89.168,0,0,0,0,
31,4176.41,4176.92,4183.59,4186.67,4186.15,4184.1,4186.67,4187.18,4186.67,4190.77,4238.46,4947.69,4173.85,4181.03,2045,2038,89.175,0,0,0,0,
32,4188.72,4185.13,4189.74,4185.64,4180,4181.54,4179.49,4181.03,4187.69,4192.31,4243.08,4952.82,4189.23,4193.33,2044,2037,89.183,0,0,0,0,
33,4182.05,4182.05,4184.1,4181.54,4180.51,4178.97,4177.95,4185.13,4189.74,4191.79,4238.97,4946.15,4187.18,4191.28,2044,2037,89.191,0,0,0,0,
34,4179.49,4176.41,4185.13,4187.18,4184.62,4181.03,4184.1,4184.62,4181.54,4188.72,4237.95,4949.74,4173.85,4186.15,2043,2036,89.199,0,0,0,0,
35,4195.38,4186.67,4184.1,4180,4179.49,4174.36,4175.9,4182.05,4185.64,4190.26,4243.08,4951.79,4192.31,4195.38,2045,2036,89.206,0,0,0,0,
36,4173.33,4180,4181.03,4180.51,4185.64,4178.97,4188.21,4182.05,4186.15,4188.21,4239.49,4946.15,4177.95,4184.62,2045,2037,89.219,0,0,0,0,
37,4188.72,4183.08,4186.67,4187.69,4184.1,4178.97,4181.03,4184.62,4186.67,4189.23,4242.56,4950.26,4185.64,4192.82,2043,2037,89.222,0,0,0,0,
38,4187.18,4175.38,4182.56,4180.51,4183.59,4179.49,4175.38,4186.67,4190.26,4191.79,4240,4944.62,4188.21,4191.28,2043,2038,89.23,0,0,0,0,
39,4176.92,4175.38,4184.62,4183.59,4184.62,4183.59,4181.03,4180.51,4184.62,4189.23,4238.97,4947.69,4174.36,4184.62,2045,2037,89.238,0,0,0,0,
40,4195.38,4191.28,4183.59,4183.59,4175.38,4176.41,4172.31,4183.08,4191.79,4189.23,4243.08,4950.77,4189.74,4192.82,2044,2037,89.247,0,0,0,0,
41,4176.41,4176.41,4179.49,4181.03,4184.62,4182.56,4181.03,4185.64,4189.23,4191.28,4236.41,4947.69,4177.95,4182.05,2045,2037,89.255,0,0,0,0,
42,4189.74,4179.49,4183.59,4181.03,4186.67,4184.62,4177.44,4182.05,4183.08,4192.31,4242.05,4953.33,4183.59,4189.23,2044,2037,89.262,0,0,0,0,
43,4190.77,4183.59,4180.51,4178.46,4183.08,4179.49,4176.41,4187.69,4187.18,4189.74,4242.05,4946.15,4186.67,4191.79,2044,2039,89.269,0,0,0,0,
44,4175.9,4178.46,4183.59,4185.64,4185.13,4182.05,4184.1,4186.67,4183.08,4187.18,4238.46,4948.21,4175.9,4185.13,2044,2038,89.277,0,0,0,0,
45,4195.9,4189.23,4183.08,4186.67,4180,4177.44,4173.85,4183.08,4189.23,4191.28,4242.05,4954.36,4193.85,4194.87,2045,2037,89.286,0,0,0,0,
46,4177.44,4178.97,4178.97,4184.62,4185.13,4182.05,4183.08,4184.1,4190.77,4189.74,4238.46,4946.15,4178.46,4187.69,2045,2038,89.298,0,0,0,0,
47,4183.59,4181.54,4187.18,4185.13,4183.08,4182.05,4179.49,4184.1,4188.72,4187.18,4243.59,4950.77,4183.08,4194.87,2044,2038,89.301,0,0,0,0,
48,4190.77,4185.13,4182.56,4181.54,4176.41,4179.49,4175.9,4186.15,4190.77,4189.23,4241.54,4951.28,4191.79,4193.85,2045,2039,89.309,0,0,0,0,
49,4174.87,4176.41,4183.59,4187.18,4184.62,4183.59,4187.69,4180,4185.13,4188.21,4237.44,4949.23,4173.85,4180.51,2044,2039,89.317,0,0,0,0,
50,4193.85,4186.15,4189.23,4184.62,4184.1,4174.36,4175.38,4181.54,4189.74,4190.77,4243.59,4949.23,4191.79,4194.87,2044,2037,89.325,0,0,0,0,
51,4178.97,4175.9,4186.15,4180,4186.15,4180.51,4179.49,4189.74,4189.23,4189.23,4236.92,4946.67,4183.59,4189.23,2044,2038,89.333,0,0,0,0,
52,4182.05,4178.97,4187.69,4185.13,4180,4184.62,4181.54,4184.62,4185.13,4189.74,4240.51,4954.36,4180,4188.72,2043,2038,89.34,0,0,0,0,
53,4189.23,4185.13,4180.51,4181.03,4175.38,4176.92,4177.44,4184.62,4191.79,4192.82,4243.08,4948.21,4189.23,4192.31,2044,2037,89.348,0,0,0,0,
54,4173.33,4176.92,4182.56,4181.54,4187.69,4183.08,4185.13,4187.18,4185.13,4187.69,4238.97,4946.67,4175.9,4182.05,2043,2037,89.358,0,0,0,0,
55,4193.33,4189.23,4187.18,4183.08,4184.62,4180,4174.87,4188.21,4187.18,4189.23,4244.1,4952.31,4191.79,4192.31,2045,2038,89.365,0,0,0,0,
56,4177.95,4180.51,4181.03,4182.56,4182.56,4180,4181.54,4186.67,4192.82,4191.79,4239.49,4942.56,4182.05,4187.18,2044,2037,89.373,0,0,0,0,
57,4177.95,4178.97,4184.62,4187.18,4183.08,4183.08,4184.1,4181.54,4188.21,4189.74,4241.03,4948.21,4179.49,4187.69,2045,2038,89.38,0,0,0,0,
58,4190.77,4184.1,4183.59,4183.08,4181.03,4180,4174.36,4187.18,4192.82,4191.28,4240.51,4950.77,4194.36,4191.79,2044,2038,89.388,0,0,0,0,
59,4174.36,4174.87,4184.1,4185.64,4185.64,4184.1,4182.05,4186.15,4186.67,4189.74,4236.41,4946.15,4177.95,4182.05,2044,2038,89.395,0,0,0,0,
60,4192.82,4186.15,4186.15,4184.62,4178.46,4178.46,4175.9,4182.05,4186.15,4188.72,4246.15,4951.28,4190.26,4195.38,2044,2036,89.403,0,0,0,0,
61,4178.97,4180.51,4180,4179.49,4180.51,4180,4183.08,4184.1,4190.26,4189.74,4242.56,4949.23,4184.1,4190.77,2045,2038,89.411,0,0,0,0,
62,4174.87,4177.95,4185.13,4185.64,4184.1,4182.05,4184.62,4182.05,4184.62,4190.26,4240,4951.79,4176.92,4187.69,2044,2037,89.419,0,0,0,0,
63,4190.26,4184.62,4185.13,4182.56,4180.51,4177.44,4174.87,4186.67,4187.69,4191.79,4240.51,4947.69,4192.31,4194.36,2044,2037,89.429,0,0,0,0,
64,4172.31,4175.38,4182.56,4183.59,4187.69,4184.1,4187.18,4185.64,4186.15,4191.79,4236.41,4945.13,4177.44,4183.08,2044,2037,89.435,0,0,0,0,
65,4190.77,4186.15,4187.69,4185.64,4182.05,4177.44,4176.92,4181.03,4189.74,4195.38,4243.08,4952.82,4187.18,4192.31,2043,2037,89.443,0,0,0,0,
66,4185.13,4182.56,4184.1,4181.03,4180.51,4176.41,4177.95,4183.08,4191.28,4192.82,4239.49,4947.69,4183.08,4186.67,2044,2038,89.451,0,0,0,0,
67,4175.38,4179.49,4185.13,4185.64,4185.13,4184.1,4184.62,4180,4184.62,4186.67,4238.46,4949.23,4177.44,4182.56,2044,2038,89.459,0,0,0,0,
68,4190.77,4191.79,4182.05,4183.08,4181.03,4180,4173.33,4182.05,4190.26,4191.28,4241.54,4946.15,4196.92,4194.36,2044,2038,89.466,0,0,0,0,
69,4174.36,4180,4180,4182.56,4185.13,4183.08,4184.1,4182.56,4186.15,4192.31,4234.87,4945.64,4176.41,4182.56,2044,2036,89.475,0,0,0,0,
70,4187.69,4181.54,4184.62,4183.59,4177.95,4178.46,4181.03,4180.51,4187.69,4190.26,4241.54,4952.82,4183.08,4190.26,2044,2038,89.483,0,0,0,0,
71,4183.59,4181.54,4181.03,4180.51,4180,4178.46,4178.97,4186.15,4192.82,4188.72,4242.05,4942.56,4188.21,4191.79,2044,2039,89.49,0,0,0,0,
72,4178.46,4181.54,4184.1,4187.18,4188.72,4184.1,4182.56,4185.64,4182.56,4187.69,4240,4946.15,4178.46,4189.74,2045,2039,89.498,0,0,0,0,
73,4195.38,4187.18,4185.13,4182.05,4181.03,4175.38,4172.82,4185.64,4186.15,4191.79,4241.03,4951.28,4194.87,4198.46,2045,2038,89.507,0,0,0,0,
74,4173.33,4173.85,4182.05,4179.49,4185.64,4180,4184.62,4186.15,4188.21,4190.77,4235.9,4946.15,4181.03,4185.64,2044,2038,89.514,0,0,0,0,
75,4189.74,4184.1,4186.67,4186.15,4185.13,4182.05,4180.51,4184.1,4186.15,4189.23,4241.54,4951.28,4187.18,4192.82,2046,2039,89.522,0,0,0,0,
76,4191.79,4185.13,4179.49,4183.59,4182.56,4180,4176.92,4186.67,4189.23,4193.85,4238.97,4945.64,4190.77,4193.85,2044,2039,89.529,0,0,0,0,
77,4174.87,4177.44,4181.54,4186.15,4186.67,4180.51,4184.1,4182.05,4186.15,4195.38,4238.46,4945.13,4177.95,4184.62,2044,2037,89.538,0,0,0,0,
78,4193.33,4186.67,4183.59,4184.62,4181.54,4174.36,4175.9,4182.56,4191.79,4194.36,4245.13,4947.18,4192.82,4194.87,2044,2039,89.545,0,0,0,0,
79,4178.46,4177.44,4176.92,4182.56,4184.62,4182.56,4186.15,4188.72,4187.69,4188.72,4238.97,4944.1,4181.03,4186.15,2045,2040,89.553,0,0,0,0,
80,4187.69,4186.67,4181.54,4184.62,4182.05,4183.59,4181.54,4185.13,4184.1,4190.26,4241.54,4951.28,4187.18,4189.74,2043,2037,89.561,0,0,0,0,
81,4188.21,4185.64,4181.54,4180,4180.51,4178.46,4176.41,4185.13,4191.28,4194.87,4241.03,4947.69,4190.77,4191.28,2044,2039,89.569,0,0,0,0,
82,4173.85,4173.85,4184.62,4185.64,4186.15,4182.05,4184.62,4184.62,4185.64,4189.23,4237.95,4946.15,4175.9,4186.15,2043,2039,89.577,0,0,0,0,
83,4196.92,4188.72,4184.62,4184.62,4177.95,4176.92,4174.87,4185.13,4188.21,4189.74,4243.08,4949.74,4195.38,4194.87,2044,2037,89.585,0,0,0,0,
84,4183.08,4180.51,4180,4181.03,4181.03,4181.03,4186.15,4185.64,4187.69,4191.79,4238.97,4947.69,4182.05,4182.56,2045,2038,89.595,0,0,0,0,
85,4186.67,4179.49,4187.18,4185.13,4184.1,4181.54,4183.59,4181.54,4183.59,4192.31,4243.59,4953.85,4183.08,4191.28,2045,2037,89.6,0,0,0,0,
86,4188.72,4185.13,4183.59,4179.49,4181.54,4176.41,4174.87,4184.1,4188.72,4190.77,4241.03,4945.64,4193.33,4197.44,2045,2038,89.608,0,0,0,0,
87,4171.28,4179.49,4184.1,4183.59,4185.13,4183.08,4184.62,4184.62,4184.1,4186.15,4234.36,4944.62,4176.41,4185.13,2045,2037,89.616,0,0,0,0,
88,4194.87,4188.72,4186.15,4187.18,4178.97,4180,4176.92,4185.13,4186.67,4189.74,4243.08,4953.33,4192.31,4197.44,2045,2038,89.624,0,0,0,0,
89,4182.05,4177.44,4180.51,4183.59,4181.03,4181.54,4182.56,4185.13,4187.18,4193.33,4241.54,4946.67,4184.1,4192.82,2046,2039,89.632,0,0,0,0,
90,4178.97,4178.46,4185.13,4186.67,4180.51,4181.03,4181.54,4182.05,4184.1,4192.82,4240,4948.72,4181.03,4191.28,2044,2038,89.64,0,0,0,0,
91,4186.15,4185.13,4181.54,4183.08,4176.41,4175.9,4175.38,4183.59,4191.28,4190.26,4240.51,4946.15,4190.77,4191.79,2043,2038,89.648,0,0,0,0,
92,4172.82,4176.41,4183.08,4184.62,4185.64,4181.54,4188.21,4181.03,4187.18,4187.69,4238.97,4947.18,4175.9,4182.05,2044,2038,89.656,0,0,0,0,
93,4193.33,4185.13,4187.69,4183.59,4181.54,4178.97,4177.44,4183.08,4187.69,4192.31,4244.1,4954.36,4191.28,4193.33,2044,2038,89.663,0,0,0,0,
94,4179.49,4176.92,4180.51,4183.59,4182.05,4181.54,4178.97,4187.69,4187.18,4191.28,4237.95,4945.64,4182.56,4187.18,2044,2039,89.671,0,0,0,0,
95,4182.56,4178.97,4182.56,4189.23,4183.59,4181.03,4182.05,4184.1,4182.05,4188.21,4241.03,4947.69,4177.95,4189.74,2044,2039,89.679,0,0,0,0,
96,4197.95,4186.67,4180,4180,4180,4173.85,4174.87,4186.15,4189.23,4193.33,4245.13,4948.72,4191.79,4197.95,2045,2038,89.687,0,0,0,0,
97,4172.82,4174.87,4181.54,4180,4186.15,4183.59,4183.59,4184.1,4186.67,4191.79,4241.03,4949.74,4175.38,4184.1,2045,2038,89.695,0,0,0,0,
98,4188.72,4187.18,4186.67,4183.59,4181.03,4181.54,4175.38,4180,4187.69,4188.21,4243.59,4951.79,4189.74,4193.33,2044,2038,89.704,0,0,0,0,
99,4182.05,4181.54,4179.49,4180.51,4183.08,4178.97,4181.03,4185.13,4189.74,4189.23,4236.92,4941.03,4184.62,4190.26,2045,2038,89.711,0,0,0,0,
100,4176.92,4176.41,4184.62,4186.15,4186.15,4181.54,4185.64,4182.05,4184.1,4189.74,4239.49,4949.23,4177.44,4188.72,2044,2038,89.72,0,0,0,0,
101,4191.79,4185.13,4186.15,4184.62,4178.97,4177.95,4175.38,4181.54,4190.77,4190.77,4244.1,4953.33,4195.38,4194.87,2044,2038,89.726,0,0,0,0,
102,4173.85,4176.41,4181.03,4183.59,4183.08,4183.08,4186.15,4184.1,4186.67,4191.28,4237.95,4947.69,4178.97,4182.05,2044,2037,89.734,0,0,0,0,
103,4189.74,4186.67,4183.08,4183.59,4177.95,4181.03,4177.95,4184.1,4185.13,4193.85,4242.05,4949.74,4187.69,4191.28,2044,2037,89.742,0,0,0,0,
104,4184.1,4184.62,4181.03,4182.05,4178.97,4180.51,4178.97,4187.69,4189.23,4190.77,4236.41,4945.64,4187.69,4189.23,2044,2036,89.75,0,0,0,0,
105,4177.44,4178.97,4185.64,4187.18,4186.15,4183.08,4185.64,4186.15,4183.59,4186.67,4236.41,4950.26,4180.51,4185.64,2045,2038,89.758,0,0,0,0,
106,4196.41,4186.15,4185.64,4184.1,4181.54,4175.9,4173.85,4188.21,4188.72,4191.79,4244.62,4950.26,4196.92,4194.87,2046,2037,89.767,0,0,0,0,
107,4176.41,4174.36,4182.56,4185.13,4186.15,4180.51,4183.08,4186.15,4186.67,4191.28,4238.97,4945.13,4177.95,4184.62,2045,2037,89.774,0,0,0,0,
108,4187.69,4181.54,4186.67,4185.64,4183.59,4178.46,4178.97,4180.51,4184.62,4189.74,4243.08,4952.31,4185.13,4193.85,2045,2036,89.783,0,0,0,0,
109,4185.13,4181.54,4182.56,4180,4182.05,4177.44,4179.49,4185.13,4189.74,4193.33,4243.59,4949.23,4191.79,4192.82,2044,2036,89.791,0,0,0,0,
110,4174.87,4175.9,4185.64,4188.21,4184.62,4183.59,4186.15,4182.56,4185.13,4191.28,4242.56,4950.26,4177.95,4183.59,2044,2038,89.797,0,0,0,0,
111,4192.82,4188.21,4184.1,4185.13,4175.38,4178.46,4171.79,4182.05,4189.23,4190.26,4244.1,4948.72,4191.28,4192.82,2043,2038,89.806,0,0,0,0,
112,4172.82,4180.51,4178.97,4181.03,4183.08,4184.1,4182.05,4185.13,4186.67,4191.28,4235.38,4943.08,4181.03,4185.13,2044,2037,89.813,0,0,0,0,
113,4185.13,4186.15,4187.69,4186.15,4186.15,4183.08,4180,4183.59,4183.59,4193.85,4241.54,4950.26,4187.69,4191.28,2046,2038,89.821,0,0,0,0,
114,4190.26,4186.15,4185.64,4182.56,4181.54,4177.95,4175.38,4183.59,4187.69,4194.36,4243.08,4945.64,4190.77,4192.31,2045,2039,89.832,0,0,0,0,
115,4174.87,4176.92,4183.59,4186.67,4181.54,4184.1,4184.62,4179.49,4183.08,4189.74,4237.95,4945.13,4175.38,4185.64,2043,2037,89.837,0,0,0,0,
116,4190.77,4184.62,4184.1,4185.64,4177.95,4178.97,4177.44,4179.49,4188.21,4192.82,4242.05,4950.77,4191.79,4196.92,2044,2037,89.845,0,0,0,0,
117,4176.41,4174.36,4183.08,4182.56,4185.13,4181.03,4182.56,4182.05,4187.69,4193.85,4237.44,4947.18,4181.54,4186.15,2045,2037,89.853,0,0,0,0,
118,4185.13,4181.54,4186.15,4186.67,4181.03,4182.56,4177.95,4182.56,4185.64,4190.77,4241.54,4950.77,4186.15,4189.74,2045,2037,89.86,0,0,0,0,
119,4187.18,4185.13,4180,4182.56,4177.95,4180,4174.87,4186.15,4191.28,4190.77,4241.03,4946.67,4192.31,4194.87,2045,2037,89.869,0,0,0,0,
120,4172.31,4175.38,4185.13,4184.1,4186.67,4181.54,4182.56,4181.54,4183.59,4190.26,4237.44,4946.15,4175.38,4187.69,2043,2038,89.876,0,0,0,0,
121,4192.82,4186.15,4190.77,4183.59,4180,4173.33,4171.79,4179.49,4187.18,4194.36,4243.08,4949.74,4193.33,4196.92,2043,2038,89.885,0,0,0,0,
122,4177.44,4179.49,4183.08,4183.59,4181.54,4181.03,4182.56,4182.56,4189.23,4194.36,4238.46,4943.59,4182.05,4186.15,2044,2037,89.893,0,0,0,0,
123,4182.05,4184.1,4183.59,4189.23,4181.54,4184.62,4183.59,4180.51,4183.59,4192.31,4242.56,4949.74,4180,4186.15,2043,2037,89.9,0,0,0,0,
124,4190.77,4187.18,4179.49,4182.56,4178.97,4177.44,4173.85,4184.62,4188.72,4194.36,4242.56,4947.69,4190.26,4190.77,2043,2038,89.908,0,0,0,0,
125,4172.82,4175.38,4182.05,4182.56,4185.64,4183.59,4183.59,4185.13,4185.64,4191.79,4238.97,4946.67,4176.41,4185.13,2044,2037,89.916,0,0,0,0,
126,4192.82,4187.18,4187.18,4184.62,4180.51,4178.97,4177.44,4185.13,4188.72,4190.77,4244.1,4951.28,4192.82,4198.97,2045,2038,89.924,0,0,0,0,
127,4178.97,4181.54,4180,4184.1,4181.03,4180.51,4182.56,4186.15,4188.72,4190.77,4236.41,4943.59,4183.08,4188.72,2045,2038,89.931,0,0,0,0,
128,4177.95,4183.08,4183.59,4187.18,4184.62,4183.08,4181.54,4180,4182.05,4190.77,4237.95,4949.74,4176.92,4187.18,2046,2037,89.939,0,0,0,0,
0,4190.77,4187.18,4182.05,4182.05,4181.54,4177.44,4170.77,4183.08,4187.69,4194.36,4243.08,4947.18,4192.31,4195.9,2044,2039,89.949,0,0,0,0,
1,4170.77,4174.36,4181.54,4185.13,4186.15,4182.56,4183.08,4185.64,4184.62,4190.77,4238.46,4942.56,4178.46,4183.59,2044,2038,89.955,0,0,0,0,
2,4185.64,4186.15,4186.15,4186.15,4180.51,4178.97,4180,4184.1,4187.18,4190.77,4242.05,4951.28,4190.77,4192.31,2045,2037,89.963,0,0,0,0,
3,4178.46,4182.05,4181.54,4181.03,4181.54,4178.97,4181.54,4184.62,4190.26,4192.82,4236.92,4946.67,4187.18,4188.21,2046,2039,89.971,0,0,0,0,
4,4177.44,4178.97,4186.67,4188.72,4182.05,4182.05,4181.03,4180.51,4185.64,4191.28,4238.46,4946.67,4181.03,4185.13,2044,2038,89.979,0,0,0,0,
5,4190.26,4189.23,4185.13,4185.13,4176.41,4177.44,4174.87,4183.59,4190.77,4192.82,4240.51,4946.15,4192.82,4193.33,2045,2039,89.987,0,0,0,0,
6,4171.28,4178.97,4180,4181.54,4185.13,4183.59,4186.15,4183.08,4184.62,4193.85,4236.41,4946.67,4175.9,4184.62,2046,2038,89.995,0,0,0,0,
7,4188.21,4185.13,4183.08,4183.59,4184.1,4182.56,4175.38,4179.49,4184.1,4190.77,4243.59,4950.26,4187.18,4190.26,2045,2037,90.002,0,0,0,0,
8,4184.1,4182.56,4181.54,4182.56,4183.59,4182.56,4180,4185.13,4188.72,4186.15,4239.49,4942.05,4182.56,4183.59,2045,2038,90.01,0,0,0,0,
9,4178.97,4178.97,4185.64,4188.72,4182.56,4183.08,4185.64,4184.62,4181.54,4188.21,4237.95,4948.72,4174.87,4184.62,2043,2037,90.018,0,0,0,0,
10,4193.33,4186.15,4183.59,4185.13,4175.9,4173.85,4172.31,4184.62,4185.64,4192.82,4242.05,4950.77,4194.36,4195.38,2043,2038,90.026,0,0,0,0,
11,4171.79,4174.87,4181.54,4185.13,4184.1,4181.03,4184.62,4183.59,4186.15,4188.72,4236.41,4944.62,4177.95,4182.05,2045,2037,90.034,0,0,0,0,
12,4186.67,4183.08,4187.69,4186.67,4181.54,4181.54,4181.03,4182.56,4185.13,4193.85,4240.51,4948.72,4185.64,4191.28,2045,2037,90.042,0,0,0,0,
13,4186.15,4183.08,4181.54,4181.03,4178.97,4180,4179.49,4187.18,4187.69,4199.49,4240,4944.62,4188.21,4192.82,2044,2038,90.05,0,0,0,0,
14,4175.9,4177.95,4183.08,4186.15,4183.08,4185.64,4186.15,4184.1,4184.1,4190.26,4239.49,4948.21,4176.92,4186.67,2044,2038,90.058,0,0,0,0,
15,4194.36,4187.18,4187.18,4183.59,4177.95,4178.97,4175.9,4184.62,4190.77,4190.26,4243.59,4950.26,4193.85,4196.41,2044,2037,90.065,0,0,0,0,
16,4175.38,4176.92,4185.13,4184.62,4185.13,4182.05,4186.67,4185.64,4187.18,4194.36,4240,4945.64,4180,4186.67,2045,2038,90.073,0,0,0,0,
17,4184.62,4182.56,4184.62,4188.72,4183.59,4181.54,4182.56,4182.05,4184.62,4192.31,4244.1,4951.79,4186.15,4191.79,2044,2038,90.081,0,0,0,0,
18,4184.62,4181.54,4177.44,4181.03,4180.51,4178.97,4175.9,4183.08,4188.72,4190.77,4238.97,4946.67,4189.74,4193.85,2044,2037,90.089,0,0,0,0,
19,4173.85,4175.9,4184.62,4185.13,4185.64,4182.05,4182.56,4181.03,4185.13,4189.74,4236.92,4947.69,4176.92,4187.18,2044,2037,90.097,0,0,0,0,
20,4194.36,4187.18,4188.72,4184.62,4180,4175.9,4176.41,4183.59,4188.21,4193.33,4244.62,4950.77,4194.36,4192.31,2045,2037,90.108,0,0,0,0,
21,4176.92,4177.44,4183.59,4182.56,4183.59,4179.49,4182.56,4185.13,4183.08,4192.31,4238.46,4946.67,4181.54,4178.97,2044,2037,90.112,0,0,0,0,
22,4182.56,4184.62,4186.67,4188.21,4183.08,4180,4176.41,4180,4181.54,4190.26,4241.03,4952.82,4183.59,4188.72,2045,2039,90.12,0,0,0,0,
23,4186.15,4188.21,4181.03,4181.54,4180,4178.46,4176.92,4183.08,4190.77,4190.77,4241.03,4947.69,4190.77,4193.85,2044,2039,90.131,0,0,0,0,
24,4173.85,4177.44,4183.59,4181.54,4184.1,4183.59,4188.21,4187.18,4184.1,4189.23,4237.44,4946.67,4177.44,4183.08,2044,2038,90.136,0,0,0,0,
25,4194.36,4185.64,4189.23,4183.08,4177.95,4175.9,4173.85,4187.69,4184.1,4190.77,4242.05,4950.26,4192.31,4193.33,2045,2038,90.144,0,0,0,0,
26,4176.41,4176.41,4184.1,4183.08,4181.03,4177.95,4180.51,4184.62,4186.15,4191.28,4237.44,4943.59,4178.97,4185.13,2044,2038,90.153,0,0,0,0,
27,4183.08,4180.51,4185.13,4185.13,4181.54,4180.51,4182.05,4182.05,4187.18,4192.31,4242.56,4949.23,4181.03,4187.69,2046,2039,90.16,0,0,0,0,
28,4189.23,4184.1,4182.56,4181.03,4178.46,4176.92,4177.95,4188.21,4192.82,4192.31,4242.05,4947.18,4193.85,4191.79,2045,2039,90.168,0,0,0,0,
29,4169.23,4172.31,4183.59,4185.13,4183.59,4184.1,4188.21,4184.1,4184.1,4187.69,4236.41,4946.15,4177.44,4183.59,2044,2039,90.177,0,0,0,0,
30,4189.74,4186.15,4185.13,4184.62,4180,4178.97,4177.95,4181.03,4187.18,4193.33,4242.05,4950.26,4190.77,4195.38,2045,2038,90.183,0,0,0,0,
31,4179.49,4183.59,4181.03,4182.56,4186.15,4178.97,4182.56,4186.15,4191.79,4195.9,4237.95,4943.08,4178.97,4186.67,2045,2038,90.191,0,0,0,0,
32,4180.51,4182.56,4187.69,4186.67,4185.13,4180.51,4184.1,4183.08,4185.64,4192.31,4239.49,4947.18,4177.44,4185.64,2045,2038,90.199,0,0,0,0,
33,4189.23,4184.62,4184.62,4180.51,4176.92,4175.38,4174.87,4185.13,4189.23,4191.79,4240.51,4948.21,4194.36,4191.28,2044,2038,90.207,0,0,0,0,
34,4172.31,4177.44,4181.54,4184.1,4184.1,4182.56,4183.59,4185.64,4184.1,4188.72,4235.9,4948.72,4176.41,4183.08,2045,2039,90.215,0,0,0,0,
35,4190.77,4188.21,4184.62,4187.18,4180.51,4181.03,4174.87,4181.03,4185.13,4191.28,4242.05,4953.33,4185.64,4194.87,2045,2038,90.223,0,0,0,0,
36,4178.46,4178.46,4180,4183.08,4181.03,4181.03,4179.49,4183.08,4187.18,4193.85,4237.44,4946.15,4182.56,4188.72,2044,2038,90.231,0,0,0,0,
37,4175.9,4178.46,4182.05,4186.15,4184.1,4182.05,4184.1,4183.08,4183.08,4190.26,4237.44,4949.23,4180,4185.64,2046,2038,90.239,0,0,0,0,
38,4190.77,4187.69,4181.03,4181.03,4180.51,4176.92,4174.87,4183.59,4190.26,4188.21,4240.51,4946.15,4191.28,4191.79,2044,2040,90.25,0,0,0,0,
39,4172.31,4176.92,4185.13,4184.62,4184.62,4181.54,4183.08,4181.03,4186.15,4190.26,4238.46,4943.08,4175.9,4181.54,2043,2038,90.255,0,0,0,0,
40,4188.72,4184.62,4188.72,4186.67,4181.03,4176.92,4175.9,4182.56,4185.13,4192.82,4242.56,4949.74,4189.74,4190.77,2044,2037,90.262,0,0,0,0,
41,4183.59,4178.46,4180,4180,4184.62,4180,4178.46,4187.69,4190.77,4188.72,4236.92,4943.08,4185.64,4187.69,2043,2036,90.27,0,0,0,0,
42,4178.97,4178.46,4185.13,4186.15,4186.67,4185.64,4185.13,4185.13,4184.1,4188.72,4238.46,4947.18,4175.38,4186.15,2044,2038,90.278,0,0,0,0,
43,4191.28,4190.26,4184.62,4184.1,4180.51,4176.92,4176.92,4187.18,4183.59,4195.38,4240.51,4949.23,4189.23,4194.36,2045,2038,90.286,0,0,0,0,
44,4169.74,4174.87,4181.03,4182.05,4185.64,4180.51,4183.59,4185.64,4184.1,4188.72,4234.87,4945.64,4173.33,4183.59,2044,2038,90.294,0,0,0,0,
45,4189.74,4181.54,4186.15,4185.13,4179.49,4180,4176.92,4180,4189.23,4185.13,4243.08,4950.77,4185.64,4194.36,2045,2036,90.301,0,0,0,0,
46,4188.21,4185.64,4181.03,4184.1,4178.46,4180,4181.03,4184.62,4191.79,4193.33,4240,4947.18,4185.64,4190.77,2044,2038,90.309,0,0,0,0,
47,4175.38,4183.08,4184.1,4188.21,4185.64,4184.1,4185.64,4185.64,4185.13,4193.33,4236.92,4949.74,4173.85,4182.56,2046,2038,90.317,0,0,0,0,
48,4193.33,4190.26,4187.18,4182.05,4181.03,4177.44,4172.31,4187.69,4190.26,4187.69,4244.1,4948.72,4192.31,4194.36,2045,2038,90.326,0,0,0,0,
49,4176.92,4179.49,4185.13,4180,4186.15,4182.56,4184.62,4186.67,4187.18,4187.69,4237.95,4946.15,4180,4187.69,2044,2038,90.333,0,0,0,0,
50,4187.69,4185.13,4187.18,4185.64,4182.05,4180,4182.05,4183.08,4186.67,4194.87,4240.51,4954.87,4189.23,4193.85,2044,2038,90.342,0,0,0,0,
51,4186.67,4183.08,4182.56,4182.05,4179.49,4177.44,4177.44,4188.21,4189.74,4192.31,4242.05,4949.23,4192.31,4193.33,2044,2037,90.349,0,0,0,0,
52,4176.41,4177.44,4184.62,4183.59,4185.13,4184.1,4183.08,4186.15,4182.05,4184.62,4240.51,4951.28,4176.41,4188.21,2043,2037,90.357,0,0,0,0,
53,4193.85,4187.69,4184.1,4183.08,4177.95,4177.44,4173.85,4184.62,4189.23,4191.28,4243.08,4953.33,4193.85,4197.95,2044,2037,90.365,0,0,0,0,
54,4174.87,4175.38,4181.03,4185.64,4181.03,4181.54,4183.08,4183.59,4188.72,4190.77,4236.41,4947.18,4181.54,4186.67,2045,2039,90.373,0,0,0,0,
55,4185.13,4180,4187.69,4187.69,4184.62,4182.05,4178.97,4180,4182.05,4185.13,4238.97,4952.31,4182.56,4190.26,2044,2037,90.382,0,0,0,0,
56,4188.21,4183.59,4183.08,4178.46,4182.56,4176.41,4174.36,4185.64,4189.74,4190.26,4237.44,4948.72,4187.18,4191.28,2044,2037,90.39,0,0,0,0,
57,4175.9,4176.92,4184.62,4183.08,4184.1,4182.05,4185.13,4185.13,4189.74,4192.31,4237.95,4949.74,4176.41,4186.15,2044,2037,90.396,0,0,0,0,
58,4194.36,4185.64,4187.69,4182.56,4177.95,4178.46,4177.95,4182.05,4190.26,4191.28,4245.64,4951.28,4194.36,4197.95,2045,2037,90.404,0,0,0,0,
59,4174.87,4174.36,4182.05,4179.49,4183.08,4182.56,4185.64,4182.05,4187.69,4188.72,4238.97,4944.1,4180,4185.13,2045,2037,90.413,0,0,0,0,
60,4183.59,4178.97,4184.1,4186.67,4182.56,4184.1,4181.03,4182.05,4185.13,4188.21,4240.51,4950.26,4181.03,4186.67,2044,2037,90.42,0,0,0,0,
61,4190.77,4184.1,4182.05,4184.1,4178.46,4180.51,4175.38,4186.15,4190.26,4192.82,4238.97,4947.69,4191.28,4193.33,2045,2038,90.428,0,0,0,0,
62,4171.28,4175.38,4184.62,4185.64,4184.62,4182.56,4185.64,4184.1,4183.59,4191.28,4236.92,4945.64,4175.38,4186.67,2044,2038,90.436,0,0,0,0,
63,4194.36,4187.18,4186.67,4183.59,4181.03,4178.46,4174.36,4184.1,4187.69,4190.77,4243.59,4948.72,4190.77,4196.92,2044,2039,90.445,0,0,0,0,
64,4182.56,4176.92,4181.03,4181.54,4186.15,4183.59,4178.46,4187.18,4188.72,4189.74,4236.92,4943.08,4182.56,4186.15,2044,2038,90.451,0,0,0,0,
65,4181.54,4176.92,4187.69,4184.1,4187.18,4181.54,4178.97,4183.08,4183.59,4190.77,4237.95,4949.23,4180,4188.21,2043,2039,90.506,0,0,0,0,
66,4191.79,4185.64,4184.1,4177.95,4181.54,4173.85,4176.92,4184.62,4189.74,4193.85,4240.51,4947.69,4191.28,4194.36,2043,2038,90.508,0,0,0,0,
67,4176.41,4175.9,4181.54,4182.56,4188.21,4182.05,4190.26,4185.64,4185.64,4192.31,4237.95,4945.64,4175.9,4185.64,2044,2039,90.508,0,0,0,0,
68,4190.77,4183.59,4186.15,4183.59,4182.05,4180,4178.46,4188.21,4189.23,4191.79,4243.59,4949.23,4187.69,4196.92,2043,2039,90.508,0,0,0,0,
69,4178.46,4177.95,4182.56,4178.97,4183.08,4180.51,4181.03,4190.77,4189.74,4186.67,4237.95,4944.62,4179.49,4186.67,2045,2038,90.508,0,0,0,0,
70,4181.03,4179.49,4185.64,4185.64,4187.18,4182.05,4183.59,4183.59,4182.05,4186.67,4240,4950.26,4179.49,4184.62,2045,2038,90.508,0,0,0,0,
71,4191.28,4186.15,4182.05,4185.13,4180,4175.9,4174.87,4183.08,4189.74,4193.85,4242.56,4947.69,4194.87,4194.87,2043,2039,90.508,0,0,0,0,
72,4170.26,4176.41,4180.51,4186.67,4182.56,4183.59,4184.62,4183.08,4188.21,4190.26,4235.9,4945.64,4176.92,4185.13,2045,2037,90.514,0,0,0,0,
73,4189.23,4186.15,4184.62,4184.1,4181.03,4183.08,4177.44,4181.03,4187.18,4188.72,4241.54,4955.38,4189.23,4191.79,2045,2038,90.522,0,0,0,0,
74,4181.54,4179.49,4180.51,4179.49,4184.62,4180.51,4181.03,4183.59,4188.72,4193.85,4238.97,4948.21,4187.69,4186.67,2044,2038,90.53,0,0,0,0,
75,4179.49,4177.95,4185.13,4186.67,4185.64,4181.54,4183.08,4184.62,4186.15,4193.85,4238.46,4946.67,4180,4186.15,2044,2038,90.538,0,0,0,0,
76,4193.33,4185.64,4181.54,4183.59,4181.03,4177.95,4170.77,4188.21,4191.79,4190.26,4243.08,4946.67,4193.33,4193.85,2044,2038,90.546,0,0,0,0,
77,4169.74,4176.92,4179.49,4182.05,4186.67,4185.64,4183.08,4185.13,4186.67,4186.67,4240,4946.15,4176.92,4182.56,2045,2038,90.554,0,0,0,0,
78,4185.64,4188.72,4185.64,4185.13,4182.56,4181.03,4181.54,4181.54,4186.15,4189.23,4242.05,4952.82,4188.21,4193.33,2043,2038,90.562,0,0,0,0,
79,4184.62,4183.08,4181.54,4182.56,4184.62,4180,4182.56,4187.18,4191.79,4192.31,4236.41,4947.18,4188.21,4191.79,2044,2037,90.571,0,0,0,0,
80,4176.92,4174.36,4187.18,4186.15,4185.64,4185.64,4183.59,4183.59,4186.67,4191.28,4239.49,4947.18,4178.97,4184.62,2045,2039,90.578,0,0,0,0,
81,4191.79,4183.59,4189.23,4182.56,4177.95,4178.46,4175.9,4183.08,4190.77,4192.82,4244.1,4947.69,4194.87,4190.77,2045,2038,90.585,0,0,0,0,
82,4174.36,4177.44,4184.1,4183.08,4184.1,4182.05,4187.18,4185.13,4187.69,4189.74,4236.92,4946.67,4177.44,4185.13,2045,2037,90.593,0,0,0,0,
83,4187.69,4187.18,4183.59,4187.69,4179.49,4180.51,4176.41,4181.03,4187.18,4191.28,4243.59,4950.26,4186.67,4197.44,2043,2038,90.601,0,0,0,0,
84,4183.08,4186.15,4182.56,4182.56,4178.97,4180.51,4174.87,4183.59,4191.28,4193.33,4242.05,4941.54,4189.23,4193.33,2045,2038,90.611,0,0,0,0,
85,4172.82,4180.51,4188.21,4183.59,4186.15,4185.13,4186.67,4185.64,4184.1,4190.26,4238.46,4947.69,4175.38,4183.59,2045,2037,90.617,0,0,0,0,
86,4194.87,4189.23,4184.62,4182.05,4180.51,4176.92,4175.38,4186.15,4189.74,4192.31,4243.59,4951.28,4194.36,4193.33,2044,2037,90.625,0,0,0,0,
87,4177.95,4178.46,4181.03,4183.08,4184.1,4179.49,4180,4185.13,4190.26,4192.31,4238.46,4943.08,4182.05,4183.08,2044,2037,90.633,0,0,0,0,
88,4188.21,4186.15,4189.23,4185.64,4181.03,4180,4175.38,4182.56,4186.15,4192.31,4242.56,4949.74,4185.13,4190.77,2044,2038,90.641,0,0,0,0,
89,4190.26,4187.18,4182.05,4182.05,4177.44,4180.51,4175.38,4184.1,4188.72,4193.85,4241.54,4946.15,4188.72,4193.85,2044,2038,90.648,0,0,0,0,
90,4175.9,4179.49,4183.59,4186.67,4187.18,4185.13,4188.72,4181.03,4184.1,4189.74,4238.46,4946.15,4176.92,4185.64,2044,2039,90.656,0,0,0,0,
91,4192.82,4188.21,4189.74,4181.54,4184.1,4176.41,4178.46,4183.08,4188.72,4189.23,4241.54,4950.77,4196.92,4194.36,2044,2038,90.664,0,0,0,0,
92,4176.92,4176.41,4183.59,4179.49,4185.13,4178.97,4182.56,4185.64,4187.18,4190.26,4237.44,4945.13,4182.05,4186.67,2044,2039,90.672,0,0,0,0,
93,4188.72,4181.54,4183.59,4187.18,4184.1,4181.54,4180.51,4181.03,4185.13,4192.31,4242.56,4947.69,4182.56,4190.77,2043,2037,90.68,0,0,0,0,
94,4192.82,4187.18,4181.54,4182.56,4182.05,4177.95,4177.95,4184.62,4192.31,4194.36,4240.51,4946.15,4190.77,4192.31,2044,2037,90.688,0,0,0,0,
95,4174.36,4178.97,4183.08,4185.64,4186.67,4182.56,4187.18,4185.13,4184.62,4190.26,4236.92,4951.28,4177.44,4183.08,2044,2039,90.696,0,0,0,0,
96,4195.9,4189.23,4184.1,4187.18,4181.03,4177.95,4174.36,4184.62,4185.64,4191.28,4242.56,4953.33,4192.82,4194.36,2045,2039,90.704,0,0,0,0,
97,4180.51,4179.49,4182.05,4184.1,4182.56,4181.03,4178.46,4183.08,4188.21,4190.26,4236.41,4943.59,4182.56,4185.64,2044,2037,90.711,0,0,0,0,
98,4180,4180,4186.67,4184.62,4180,4182.05,4181.03,4180,4186.15,4188.72,4240,4951.28,4183.08,4187.18,2045,2038,90.721,0,0,0,0,
99,4189.23,4184.1,4181.03,4179.49,4179.49,4177.95,4178.97,4185.64,4190.77,4192.31,4243.08,4951.28,4192.82,4191.28,2044,2038,90.727,0,0,0,0,
100,4176.92,4176.41,4181.03,4185.13,4189.23,4182.56,4187.69,4183.08,4184.1,4188.21,4239.49,4948.21,4176.41,4183.08,2044,2038,90.735,0,0,0,0,
101,4193.33,4188.72,4185.64,4185.64,4181.54,4177.44,4175.38,4180.51,4185.13,4188.21,4244.1,4949.74,4191.28,4195.9,2045,2037,90.744,0,0,0,0,
102,4176.41,4180.51,4184.1,4181.54,4180.51,4181.54,4183.08,4186.67,4189.74,4192.82,4238.97,4943.08,4183.59,4187.18,2046,2037,90.752,0,0,0,0,
103,4179.49,4176.41,4188.72,4187.69,4181.54,4184.1,4187.18,4182.56,4187.69,4192.82,4242.05,4946.15,4181.03,4186.15,2045,2037,90.759,0,0,0,0,
104,4192.82,4182.56,4183.59,4184.62,4178.97,4176.92,4178.46,4182.56,4190.26,4191.28,4242.56,4942.56,4192.82,4194.87,2044,2037,90.767,0,0,0,0,
105,4174.36,4176.41,4182.05,4185.13,4186.15,4183.59,4186.67,4184.62,4185.13,4188.72,4236.41,4943.08,4177.44,4183.59,2044,2039,90.775,0,0,0,0,
106,4191.79,4185.64,4186.15,4185.13,4177.95,4178.97,4176.41,4184.62,4189.74,4192.82,4243.59,4949.23,4191.79,4191.28,2045,2039,90.782,0,0,0,0,
107,4182.56,4177.44,4179.49,4180.51,4178.46,4177.44,4182.05,4183.59,4191.79,4192.31,4238.46,4942.56,4184.1,4186.67,2044,2038,90.79,0,0,0,0,
108,4178.97,4179.49,4186.15,4185.64,4185.13,4183.08,4186.15,4178.97,4184.1,4187.69,4237.44,4949.23,4176.92,4186.67,2043,2038,90.798,0,0,0,0,
109,4190.26,4188.72,4187.69,4181.54,4180,4179.49,4175.38,4184.1,4189.74,4191.28,4242.05,4949.23,4193.85,4192.31,2043,2037,90.806,0,0,0,0,
110,4171.28,4175.38,4182.05,4181.03,4181.03,4183.08,4187.18,4186.15,4186.67,4191.79,4239.49,4941.54,4176.92,4183.08,2044,2038,90.814,0,0,0,0,
111,4188.21,4183.59,4183.59,4184.1,4175.9,4181.54,4181.03,4183.59,4188.72,4192.31,4245.64,4948.72,4186.15,4196.92,2043,2037,90.823,0,0,0,0,
112,4180.51,4182.56,4181.54,4181.54,4177.95,4183.59,4182.05,4184.1,4192.31,4191.28,4240,4947.18,4184.1,4191.79,2045,2037,90.83,0,0,0,0,
113,4175.38,4182.05,4185.13,4184.62,4182.05,4183.08,4185.13,4181.03,4183.08,4190.77,4238.46,4948.21,4178.46,4185.13,2045,2038,90.838,0,0,0,0,
114,4193.33,4191.28,4182.56,4183.59,4177.44,4176.41,4175.38,4184.62,4187.69,4194.36,4243.08,4945.64,4195.9,4195.38,2045,2038,90.845,0,0,0,0,
115,4172.31,4175.9,4183.08,4186.15,4183.08,4185.64,4183.59,4184.62,4188.21,4189.74,4235.9,4945.64,4177.95,4185.64,2044,2037,90.854,0,0,0,0,
116,4184.1,4181.54,4187.69,4186.15,4180.51,4183.59,4177.95,4182.56,4184.62,4186.15,4238.97,4954.36,4184.62,4191.79,2045,2038,90.861,0,0,0,0,
117,4183.59,4183.08,4180,4181.03,4180.51,4179.49,4180,4186.15,4186.15,4189.23,4240,4948.21,4187.69,4189.23,2045,2038,90.869,0,0,0,0,
118,4177.95,4178.46,4184.62,4186.67,4184.1,4181.54,4184.62,4181.54,4184.62,4190.26,4242.05,4950.77,4178.97,4185.13,2045,2037,90.877,0,0,0,0,
119,4194.87,4184.1,4184.62,4182.56,4177.95,4174.36,4172.82,4182.05,4192.31,4190.26,4243.08,4950.77,4193.85,4196.92,2044,2037,90.886,0,0,0,0,
120,4173.85,4174.87,4180,4180.51,4183.08,4181.54,4185.64,4184.62,4189.23,4189.23,4235.9,4945.64,4177.44,4186.15,2043,2038,90.894,0,0,0,0,
121,4187.69,4185.13,4186.15,4186.67,4183.08,4181.54,4182.56,4181.54,4186.67,4191.28,4242.56,4953.33,4183.08,4190.77,2043,2038,90.901,0,0,0,0,
122,4187.69,4183.08,4183.59,4185.13,4184.1,4177.44,4176.92,4185.13,4188.21,4188.21,4242.05,4946.67,4187.69,4190.77,2043,2037,90.908,0,0,0,0,
123,4173.33,4173.85,4185.64,4188.21,4185.64,4185.13,4182.05,4185.13,4178.97,4186.15,4238.97,4946.15,4175.9,4185.13,2045,2038,90.916,0,0,0,0,
124,4195.38,4186.15,4185.13,4183.59,4173.33,4181.03,4172.31,4185.64,4186.15,4192.31,4242.56,4949.74,4192.82,4196.41,2046,2038,90.924,0,0,0,0,
125,4178.46,4178.46,4179.49,4181.54,4180.51,4183.08,4182.05,4188.21,4188.72,4192.31,4236.92,4944.62,4180,4185.13,2045,2038,90.932,0,0,0,0,
126,4185.13,4184.1,4186.67,4186.15,4184.1,4182.56,4180,4183.08,4184.62,4189.74,4241.54,4949.74,4182.56,4189.74,2045,2039,90.94,0,0,0,0,
127,4188.21,4184.1,4184.62,4182.56,4178.97,4178.46,4177.95,4182.56,4189.23,4191.28,4240.51,4946.67,4187.18,4194.87,2044,2038,90.949,0,0,0,0,
128,4173.85,4175.38,4183.08,4187.18,4180,4183.08,4188.72,4182.05,4184.1,4190.26,4236.41,4947.69,4172.82,4186.15,2044,2038,90.956,0,0,0,0,
0,4196.92,4186.67,4184.1,4185.64,4174.87,4178.97,4177.95,4183.08,4187.18,4192.82,4243.08,4950.26,4192.82,4194.87,2045,2039,90.964,0,0,0,0,
1,4183.08,4178.97,4183.59,4182.56,4181.03,4181.03,4183.59,4184.1,4187.18,4194.87,4240,4944.62,4183.08,4189.23,2044,2039,90.971,0,0,0,0,
2,4183.59,4182.05,4188.21,4188.21,4182.05,4180.51,4179.49,4181.03,4183.08,4193.33,4242.56,4948.21,4181.03,4193.85,2045,2038,90.98,0,0,0,0,
3,4188.21,4184.1,4182.05,4182.56,4178.97,4176.92,4171.79,4184.62,4189.74,4191.28,4240.51,4945.13,4188.21,4192.82,2044,2037,90.987,0,0,0,0,
4,4175.9,4174.87,4184.1,4184.62,4182.05,4183.59,4182.56,4184.1,4185.13,4187.69,4236.92,4947.18,4175.38,4182.56,2044,2039,90.996,0,0,0,0,
5,4193.85,4187.18,4189.23,4188.72,4175.9,4178.46,4175.38,4184.62,4186.67,4192.31,4242.56,4950.77,4192.82,4195.38,2044,2038,91.003,0,0,0,0,
6,4174.87,4180.51,4182.05,4185.64,4180.51,4181.03,4182.56,4185.13,4189.23,4191.79,4237.44,4943.59,4180,4187.18,2044,2037,91.012,0,0,0,0,
7,4178.97,4179.49,4184.1,4185.64,4183.08,4181.03,4182.05,4181.03,4186.67,4186.15,4240,4949.74,4177.44,4187.69,2044,2037,91.02,0,0,0,0,
8,4192.31,4185.13,4183.08,4180,4176.41,4176.92,4173.85,4186.15,4191.79,4189.74,4240,4947.18,4191.28,4194.36,2044,2037,91.028,0,0,0,0,
9,4172.31,4177.44,4185.13,4185.13,4180.51,4185.64,4186.15,4183.59,4186.15,4191.28,4234.87,4942.56,4175.38,4184.1,2044,2037,91.035,0,0,0,0,
10,4189.23,4187.18,4187.18,4187.18,4178.97,4181.03,4176.92,4178.46,4187.69,4192.31,4243.08,4948.21,4190.77,4193.85,2044,2038,91.058,0,0,0,0,
11,4178.97,4179.49,4181.03,4183.59,4182.56,4181.54,4180.51,4183.08,4187.69,4193.85,4238.97,4946.15,4184.62,4186.15,2045,2038,91.064,0,0,0,0,
12,4177.44,4177.44,4186.67,4186.67,4182.05,4182.56,4184.1,4184.1,4184.1,4191.79,4239.49,4950.26,4175.38,4184.62,2045,2038,91.064,0,0,0,0,
13,4190.26,4186.67,4185.13,4182.05,4175.38,4176.41,4176.92,4185.13,4192.82,4189.74,4242.05,4945.13,4189.23,4192.31,2045,2038,91.067,0,0,0,0,
14,4171.79,4178.97,4183.08,4183.59,4183.59,4183.59,4186.15,4181.03,4186.15,4187.69,4236.41,4942.05,4176.41,4182.56,2046,2037,91.074,0,0,0,0,
15,4189.23,4186.15,4187.18,4184.1,4180.51,4182.05,4179.49,4180,4186.67,4193.33,4241.03,4952.82,4186.15,4192.31,2044,2038,91.082,0,0,0,0,
16,4181.54,4178.97,4181.03,4178.97,4177.95,4181.03,4182.05,4188.21,4192.31,4195.38,4238.46,4947.18,4182.56,4188.72,2043,2037,91.09,0,0,0,0,
17,4176.92,4177.95,4182.56,4183.59,4180.51,4181.54,4183.08,4185.13,4184.62,4189.23,4241.03,4946.15,4180.51,4188.21,2045,2038,91.098,0,0,0,0,
18,4192.31,4189.74,4184.1,4180,4176.92,4175.38,4174.87,4184.1,4187.18,4188.72,4244.1,4948.72,4195.38,4196.41,2044,2037,91.105,0,0,0,0,
19,4172.82,4177.95,4183.08,4180.51,4185.13,4181.54,4188.21,4184.1,4185.13,4188.72,4237.44,4948.72,4176.92,4183.59,2044,2037,91.115,0,0,0,0,
20,4186.15,4183.08,4185.64,4185.13,4184.1,4177.44,4178.97,4179.49,4184.62,4191.79,4242.05,4951.79,4189.23,4191.79,2044,2037,91.121,0,0,0,0,
21,4181.03,4181.03,4181.03,4180,4182.56,4175.9,4178.46,4182.05,4187.69,4193.33,4238.97,4942.56,4189.74,4190.26,2044,2038,91.131,0,0,0,0,
22,4175.38,4181.54,4185.64,4184.1,4182.56,4182.05,4188.21,4182.05,4184.1,4190.26,4237.44,4946.15,4177.44,4186.15,2043,2038,91.137,0,0,0,0,
23,4194.36,4190.77,4184.62,4184.1,4178.97,4177.44,4176.92,4185.13,4190.26,4190.77,4240,4949.74,4193.85,4192.82,2043,2038,91.146,0,0,0,0,
24,4174.87,4175.9,4181.03,4184.1,4186.67,4180.51,4182.05,4187.18,4185.64,4189.23,4236.41,4945.64,4178.46,4179.49,2044,2037,91.153,0,0,0,0,
25,4187.18,4183.59,4187.18,4183.08,4181.54,4177.95,4175.38,4184.62,4183.08,4190.26,4244.1,4951.79,4184.62,4189.23,2044,2037,91.161,0,0,0,0,
26,4186.67,4184.62,4182.05,4177.95,4178.97,4177.95,4175.38,4183.08,4188.72,4189.74,4239.49,4949.23,4189.23,4192.82,2044,2038,91.169,0,0,0,0,
27,4175.38,4178.46,4182.56,4185.64,4183.59,4185.64,4184.62,4181.03,4185.64,4184.1,4235.9,4950.77,4178.46,4185.13,2044,2037,91.177,0,0,0,0,
28,4193.33,4189.23,4184.62,4182.05,4178.46,4177.95,4175.38,4187.18,4188.72,4188.72,4244.62,4948.21,4192.31,4193.33,2044,2037,91.184,0,0,0,0,
29,4173.85,4176.92,4186.15,4180,4183.59,4181.03,4184.1,4187.69,4181.03,4192.31,4238.46,4943.08,4176.92,4184.62,2045,2037,91.193,0,0,0,0,
30,4183.08,4180.51,4191.28,4185.13,4179.49,4182.05,4181.03,4182.56,4178.46,4193.85,4239.49,4953.85,4184.1,4191.79,2044,2038,91.202,0,0,0,0,
31,4187.18,4183.08,4183.59,4181.03,4176.41,4178.97,4177.95,4187.69,4191.79,4192.82,4241.54,4949.74,4192.31,4193.33,2046,2039,91.209,0,0,0,0,
32,4174.36,4176.92,4185.13,4186.15,4184.62,4185.64,4184.62,4184.62,4188.21,4187.69,4240.51,4946.67,4176.41,4185.64,2045,2038,91.216,0,0,0,0,
33,4193.33,4187.69,4186.15,4183.08,4177.95,4181.03,4173.85,4181.03,4186.15,4189.23,4241.03,4948.72,4191.28,4195.38,2045,2038,91.224,0,0,0,0,
34,4178.46,4178.97,4180,4179.49,4180.51,4182.56,4184.1,4183.08,4183.59,4190.26,4234.87,4944.1,4180,4185.64,2044,2039,91.232,0,0,0,0,
35,4185.13,4183.08,4186.15,4185.13,4185.64,4183.59,4182.56,4180.51,4183.59,4191.28,4240,4948.21,4182.56,4189.74,2044,2039,91.239,0,0,0,0,
36,4189.23,4184.62,4183.08,4182.56,4182.56,4180.51,4174.87,4182.56,4190.77,4194.87,4240,4945.13,4190.26,4192.82,2044,2037,91.248,0,0,0,0,
37,4174.87,4174.87,4182.56,4186.15,4183.59,4183.59,4183.08,4182.56,4183.59,4191.28,4236.41,4947.18,4176.92,4186.15,2044,2038,91.255,0,0,0,0,
38,4194.87,4186.67,4184.62,4184.62,4179.49,4178.46,4175.38,4183.08,4185.64,4191.28,4242.05,4951.79,4193.85,4196.92,2044,2037,91.263,0,0,0,0,
39,4176.92,4178.46,4181.03,4181.54,4185.64,4181.54,4184.62,4184.62,4190.77,4190.77,4237.95,4948.21,4181.54,4185.13,2044,2037,91.271,0,0,0,0,
40,4181.03,4181.03,4186.67,4186.15,4182.56,4180,4184.62,4180.51,4188.21,4188.21,4242.56,4952.82,4180,4186.67,2045,2038,91.279,0,0,0,0,
41,4191.28,4186.15,4183.59,4183.08,4175.38,4175.9,4176.41,4183.08,4189.74,4190.77,4245.64,4946.67,4192.31,4192.31,2045,2037,91.287,0,0,0,0,
42,4172.31,4174.87,4183.59,4184.62,4183.08,4183.59,4185.13,4185.64,4182.05,4190.77,4240.51,4947.18,4176.92,4179.49,2044,2037,91.295,0,0,0,0,
43,4193.33,4185.64,4186.67,4184.1,4178.97,4177.44,4177.95,4185.13,4185.64,4190.26,4243.08,4953.85,4191.79,4190.26,2045,2038,91.302,0,0,0,0,
44,4181.54,4179.49,4183.59,4182.05,4181.03,4179.49,4186.15,4183.59,4190.26,4189.74,4236.92,4943.59,4182.56,4186.15,2045,2036,91.315,0,0,0,0,
45,4176.92,4177.44,4189.74,4185.64,4182.05,4182.56,4185.64,4181.54,4183.59,4189.74,4238.46,4948.72,4181.54,4186.15,2045,2038,91.318,0,0,0,0,
46,4187.69,4182.56,4184.62,4182.56,4177.95,4174.87,4173.85,4186.67,4185.13,4188.72,4240.51,4949.23,4195.38,4192.31,2045,2038,91.326,0,0,0,0,
47,4170.77,4176.41,4181.03,4186.15,4187.69,4181.03,4185.64,4183.59,4183.08,4185.13,4236.41,4943.08,4175.38,4184.62,2044,2037,91.335,0,0,0,0,
48,4187.18,4187.18,4186.15,4184.1,4183.08,4180,4180.51,4180.51,4189.74,4190.26,4243.08,4945.64,4190.26,4195.9,2045,2037,91.342,0,0,0,0,
49,4178.46,4178.97,4182.56,4178.97,4181.03,4178.97,4183.08,4185.64,4189.74,4191.28,4240,4942.05,4189.23,4188.21,2044,2038,91.35,0,0,0,0,
50,4178.46,4179.49,4187.69,4186.67,4183.08,4183.08,4184.1,4182.05,4181.03,4187.69,4241.03,4948.21,4178.97,4185.13,2043,2036,91.358,0,0,0,0,
51,4191.28,4190.26,4187.18,4184.1,4177.95,4180.51,4175.38,4184.1,4190.77,4190.77,4241.54,4948.21,4191.28,4193.85,2045,2038,91.366,0,0,0,0,
52,4171.79,4175.9,4183.08,4184.62,4182.05,4185.64,4186.67,4185.64,4189.23,4189.23,4234.87,4943.08,4178.46,4183.59,2044,2038,91.373,0,0,0,0,
53,4189.23,4181.54,4184.62,4187.18,4179.49,4180.51,4178.46,4182.56,4186.15,4187.18,4242.05,4949.74,4191.79,4189.23,2044,2038,91.381,0,0,0,0,
54,4180.51,4182.56,4180,4180.51,4182.05,4179.49,4178.46,4184.1,4189.74,4190.77,4239.49,4947.69,4188.21,4184.62,2044,2038,91.389,0,0,0,0,
55,4173.85,4180.51,4184.62,4183.59,4184.62,4183.59,4183.59,4180.51,4185.64,4190.77,4238.97,4948.21,4177.95,4185.64,2043,2039,91.397,0,0,0,0,
56,4194.87,4185.64,4185.13,4183.08,4178.46,4177.95,4171.79,4182.56,4189.74,4190.26,4243.59,4946.15,4193.85,4197.44,2044,2040,91.405,0,0,0,0,
57,4175.9,4175.38,4182.56,4183.59,4183.08,4182.56,4183.59,4185.64,4188.21,4189.74,4236.92,4946.67,4179.49,4184.1,2044,2038,91.413,0,0,0,0,
58,4187.18,4185.64,4186.15,4186.15,4179.49,4178.97,4181.03,4182.56,4186.15,4192.31,4241.03,4954.87,4186.67,4190.77,2045,2039,91.422,0,0,0,0,
59,4183.59,4182.56,4181.54,4183.08,4180.51,4177.44,4177.44,4186.15,4187.69,4192.31,4238.46,4945.13,4186.67,4189.23,2045,2039,91.429,0,0,0,0,
60,4174.36,4175.9,4183.08,4187.18,4184.1,4184.1,4180,4184.62,4184.1,4189.74,4237.44,4946.15,4175.38,4183.59,2043,2037,91.437,0,0,0,0,
61,4195.38,4189.74,4183.59,4182.05,4176.92,4177.44,4172.31,4182.56,4192.31,4192.82,4244.1,4948.72,4194.87,4194.87,2043,2038,91.444,0,0,0,0,
62,4175.9,4178.97,4183.59,4181.54,4182.05,4182.56,4184.1,4182.05,4188.72,4190.26,4238.97,4943.59,4181.54,4183.59,2044,2038,91.452,0,0,0,0,
63,4183.08,4179.49,4188.21,4187.18,4177.44,4185.13,4179.49,4180.51,4183.59,4190.77,4242.05,4949.23,4184.62,4187.69,2043,2039,91.46,0,0,0,0,
64,4184.1,4181.54,4181.03,4182.56,4176.41,4181.03,4176.41,4184.1,4188.72,4193.85,4240.51,4945.64,4188.72,4190.26,2044,2038,91.468,0,0,0,0,
65,4172.31,4180,4183.59,4186.67,4188.21,4182.56,4183.08,4183.08,4183.08,4190.77,4238.97,4949.23,4177.44,4186.15,2044,2039,91.477,0,0,0,0,
66,4191.79,4188.72,4186.67,4184.62,4181.03,4179.49,4174.36,4186.15,4188.72,4191.28,4244.62,4954.36,4195.9,4197.44,2044,2038,91.485,0,0,0,0,
67,4177.95,4175.9,4181.03,4183.08,4180,4183.08,4184.1,4187.69,4189.23,4189.74,4238.46,4945.13,4181.54,4187.69,2044,2038,91.492,0,0,0,0,
68,4187.18,4182.05,4185.64,4189.23,4181.03,4178.97,4179.49,4183.08,4184.62,4188.72,4241.54,4949.74,4184.1,4191.79,2045,2039,91.5,0,0,0,0,
69,4187.18,4184.62,4183.59,4182.05,4180.51,4176.92,4174.87,4186.67,4190.77,4191.79,4241.03,4949.23,4195.38,4194.87,2044,2038,91.507,0,0,0,0,
70,4172.31,4176.41,4182.56,4181.03,4187.18,4185.64,4188.21,4185.64,4185.64,4190.77,4236.92,4948.72,4180.51,4185.64,2045,2039,91.515,0,0,0,0,
71,4190.77,4187.69,4184.1,4181.54,4181.03,4177.44,4176.92,4184.1,4185.13,4191.79,4242.05,4952.31,4191.28,4194.87,2045,2038,91.523,0,0,0,0,
72,4174.36,4175.9,4182.56,4182.05,4182.05,4177.95,4178.97,4186.15,4185.13,4191.28,4236.92,4948.72,4178.46,4187.18,2044,2037,91.531,0,0,0,0,
73,4183.59,4178.97,4186.15,4185.64,4184.1,4182.05,4178.46,4183.08,4184.62,4190.77,4239.49,4953.33,4182.56,4189.74,2044,2038,91.541,0,0,0,0,
74,4192.31,4185.64,4180.51,4180.51,4180,4180.51,4174.87,4184.1,4190.77,4192.82,4239.49,4946.15,4193.85,4191.28,2044,2038,91.548,0,0,0,0,
75,4170.77,4173.85,4184.1,4184.62,4183.59,4185.13,4184.62,4184.1,4186.67,4190.77,4235.9,4946.67,4175.9,4181.54,2045,2037,91.557,0,0,0,0,
76,4191.79,4184.1,4188.21,4186.67,4182.05,4177.44,4175.9,4186.67,4190.26,4190.26,4241.54,4953.85,4190.26,4194.87,2044,2037,91.563,0,0,0,0,
77,4178.97,4178.46,4180,4183.08,4185.13,4179.49,4182.56,4187.18,4187.69,4190.26,4236.92,4943.59,4182.05,4189.23,2045,2039,91.57,0,0,0,0,
78,4176.92,4180.51,4184.62,4184.62,4179.49,4181.03,4181.03,4180.51,4181.54,4191.79,4241.54,4948.72,4181.03,4188.21,2044,2038,91.58,0,0,0,0,
79,4189.74,4186.67,4183.08,4180,4176.41,4175.9,4172.82,4183.59,4190.26,4191.79,4242.56,4951.79,4194.36,4191.79,2044,2038,91.586,0,0,0,0,
80,4174.87,4176.41,4181.03,4182.05,4186.15,4185.13,4185.13,4180.51,4186.15,4184.62,4236.41,4945.64,4176.41,4181.54,2044,2038,91.594,0,0,0,0,
81,4192.31,4184.62,4184.1,4182.56,4176.92,4181.03,4176.92,4178.97,4186.15,4187.69,4245.13,4945.64,4190.26,4193.85,2044,2039,91.603,0,0,0,0,
82,4182.56,4180.51,4181.54,4181.54,4177.44,4178.46,4181.03,4186.67,4188.72,4193.85,4242.05,4943.59,4186.67,4188.21,2045,2038,91.611,0,0,0,0,
83,4181.03,4181.54,4185.64,4188.21,4184.1,4182.05,4184.1,4184.62,4184.1,4189.23,4239.49,4948.21,4180.51,4188.21,2045,2038,91.62,0,0,0,0,
84,4191.28,4186.15,4182.56,4182.05,4179.49,4178.97,4174.87,4186.67,4188.72,4190.26,4240.51,4943.08,4192.31,4194.87,2044,2039,91.626,0,0,0,0,
85,4171.28,4174.36,4180.51,4182.05,4182.56,4182.56,4186.15,4186.15,4184.62,4194.36,4237.95,4943.08,4176.92,4182.05,2044,2039,91.633,0,0,0,0,
86,4189.23,4184.62,4185.13,4182.56,4180,4177.44,4178.46,4181.54,4183.59,4194.36,4243.59,4951.28,4189.23,4193.85,2044,2038,91.641,0,0,0,0,
87,4182.56,4180.51,4180,4180,4183.59,4180.51,4177.95,4183.59,4187.18,4189.23,4237.44,4942.56,4184.1,4191.79,2045,2037,91.649,0,0,0,0,
88,4177.44,4177.44,4182.05,4189.23,4186.67,4184.62,4184.62,4180,4185.13,4187.69,4236.92,4946.15,4176.41,4187.18,2045,2038,91.657,0,0,0,0,
89,4192.82,4186.67,4182.56,4184.1,4178.97,4176.92,4177.95,4181.54,4189.23,4192.82,4241.54,4948.21,4194.36,4192.82,2044,2037,91.665,0,0,0,0,
90,4172.31,4177.44,4183.59,4181.03,4185.64,4183.08,4185.13,4185.13,4184.62,4190.26,4237.44,4945.13,4178.46,4184.1,2044,2036,91.673,0,0,0,0,
91,4188.72,4186.67,4189.23,4185.64,4185.64,4181.03,4175.9,4184.1,4186.15,4188.72,4243.08,4951.28,4187.18,4194.36,2045,2038,91.681,0,0,0,0,
92,4188.21,4182.05,4182.05,4182.56,4184.1,4178.97,4180,4185.13,4191.28,4190.26,4238.46,4947.18,4188.72,4188.21,2044,2037,91.689,0,0,0,0,
93,4178.46,4177.95,4184.1,4185.13,4182.56,4185.13,4188.21,4180.51,4184.62,4186.67,4235.9,4950.77,4177.44,4181.54,2045,2038,91.696,0,0,0,0,
94,4193.85,4191.79,4183.59,4182.56,4177.44,4178.97,4174.87,4183.08,4189.23,4187.69,4242.05,4950.26,4191.79,4195.9,2044,2038,91.705,0,0,0,0,
95,4173.85,4180.51,4178.97,4182.56,4185.64,4182.05,4182.56,4187.18,4187.18,4188.72,4237.44,4945.64,4177.95,4187.18,2044,2039,91.712,0,0,0,0,
96,4186.67,4183.08,4184.62,4183.59,4181.03,4180.51,4181.54,4184.1,4184.1,4188.21,4238.97,4953.33,4186.67,4190.77,2045,2038,91.72,0,0,0,0,
97,4187.69,4184.1,4182.05,4178.97,4180.51,4177.95,4181.54,4182.05,4186.15,4185.64,4237.44,4947.69,4189.74,4189.74,2045,2038,91.728,0,0,0,0,
98,4176.92,4178.46,4183.08,4184.62,4188.21,4181.54,4183.59,4181.54,4180.51,4184.1,4238.97,4949.23,4177.95,4184.1,2044,2037,91.736,0,0,0,0,
99,4192.31,4185.64,4185.64,4183.08,4178.97,4176.92,4171.28,4187.18,4187.18,4189.74,4243.59,4953.33,4196.41,4196.41,2044,2038,91.744,0,0,0,0,
100,4172.82,4175.38,4184.1,4182.05,4183.08,4181.54,4184.1,4185.64,4187.69,4190.77,4236.41,4946.15,4181.54,4187.69,2044,2038,91.752,0,0,0,0,
101,4185.13,4183.59,4186.15,4186.67,4187.18,4178.46,4182.56,4180,4185.64,4189.23,4239.49,4950.26,4185.13,4190.77,2044,2038,91.759,0,0,0,0,
102,4190.77,4186.15,4181.54,4183.59,4181.54,4174.36,4175.9,4187.18,4188.72,4190.77,4239.49,4947.18,4193.85,4189.74,2044,2038,91.767,0,0,0,0,
103,4176.41,4175.9,4185.13,4187.69,4184.62,4181.54,4183.08,4185.13,4180.51,4191.28,4237.44,4949.23,4177.95,4184.62,2045,2039,91.775,0,0,0,0,
104,4194.36,4183.08,4185.64,4185.13,4181.54,4177.95,4174.36,4182.05,4187.18,4195.38,4243.08,4950.77,4193.33,4197.95,2044,2038,91.783,0,0,0,0,
105,4176.41,4176.92,4180.51,4181.54,4183.59,4181.03,4184.62,4185.13,4190.26,4191.28,4237.44,4943.59,4183.08,4187.18,2043,2038,91.791,0,0,0,0,
106,4185.64,4185.13,4185.64,4187.18,4183.08,4181.03,4182.56,4181.54,4183.08,4187.18,4242.56,4950.26,4185.13,4189.74,2043,2037,91.799,0,0,0,0,
107,4193.33,4186.67,4182.56,4182.56,4183.08,4177.44,4173.33,4184.62,4189.23,4191.28,4243.08,4947.69,4190.77,4192.31,2045,2038,91.807,0,0,0,0,
108,4171.79,4174.36,4185.13,4183.59,4188.21,4182.05,4181.54,4185.64,4185.64,4189.23,4237.44,4944.62,4174.36,4184.1,2045,2038,91.815,0,0,0,0,
109,4190.77,4185.64,4188.21,4183.59,4182.05,4175.9,4174.87,4183.59,4184.62,4188.21,4243.08,4949.74,4190.77,4196.41,2044,2038,91.823,0,0,0,0,
110,4181.03,4178.97,4180,4181.54,4186.15,4180,4181.03,4183.08,4182.56,4189.74,4238.46,4946.15,4183.08,4190.26,2044,2039,91.83,0,0,0,0,
111,4182.05,4182.05,4185.64,4186.67,4186.67,4182.56,4177.95,4182.05,4177.44,4191.28,4242.56,4948.72,4182.56,4191.79,2045,2038,91.838,0,0,0,0,
112,4186.67,4187.18,4186.15,4183.59,4181.03,4175.9,4172.82,4186.67,4185.64,4191.79,4244.62,4945.64,4191.28,4194.87,2043,2037,91.846,0,0,0,0,
113,4169.23,4174.87,4182.05,4185.64,4186.67,4181.54,4185.64,4183.59,4185.13,4187.18,4237.44,4945.64,4172.82,4184.1,2044,2039,91.854,0,0,0,0,
114,4189.74,4184.1,4182.05,4186.67,4180,4178.46,4176.92,4181.54,4186.67,4187.18,4241.54,4948.72,4191.79,4193.33,2044,2037,91.862,0,0,0,0,
115,4178.97,4180.51,4181.03,4184.62,4184.1,4180,4180.51,4185.64,4187.18,4188.72,4238.97,4944.1,4185.64,4182.56,2044,2038,91.87,0,0,0,0,
116,4179.49,4180,4187.69,4187.69,4187.18,4182.56,4181.54,4182.05,4183.59,4190.26,4241.03,4950.26,4176.41,4184.1,2044,2038,91.878,0,0,0,0,
117,4190.77,4184.62,4183.08,4182.05,4180,4176.92,4173.33,4184.1,4189.23,4191.28,4242.05,4945.13,4188.72,4197.44,2044,2038,91.887,0,0,0,0,
118,4170.26,4175.9,4181.03,4184.62,4184.62,4182.56,4188.21,4183.59,4183.59,4186.15,4236.41,4941.03,4174.36,4186.67,2044,2039,91.893,0,0,0,0,
119,4188.72,4188.21,4187.69,4186.67,4181.03,4179.49,4178.97,4181.03,4185.13,4189.23,4243.08,4953.33,4186.15,4190.77,2045,2037,91.901,0,0,0,0,
120,4180.51,4181.03,4184.62,4182.05,4183.59,4182.05,4178.46,4185.64,4189.23,4192.31,4240,4948.72,4182.05,4185.64,2044,2038,91.91,0,0,0,0,
121,4176.41,4175.38,4185.13,4185.64,4185.13,4186.15,4184.1,4184.62,4186.67,4188.72,4240,4947.18,4177.95,4187.18,2045,2038,91.918,0,0,0,0,
122,4194.87,4185.64,4182.56,4182.05,4176.41,4177.95,4177.44,4184.1,4192.31,4191.79,4243.08,4948.72,4194.87,4198.97,2045,2039,91.926,0,0,0,0,
123,4176.41,4175.9,4184.62,4185.64,4183.08,4184.62,4185.64,4183.08,4185.64,4192.82,4236.92,4950.26,4177.44,4185.64,2044,2038,91.933,0,0,0,0,
124,4186.67,4181.54,4188.72,4188.21,4179.49,4184.1,4177.95,4184.1,4185.13,4192.82,4241.54,4953.85,4187.69,4191.28,2044,2038,91.941,0,0,0,0,
125,4180.51,4178.46,4180.51,4180.51,4179.49,4178.97,4179.49,4188.21,4191.28,4192.82,4238.46,4944.62,4187.18,4190.77,2044,2038,91.949,0,0,0,0,
126,4174.87,4177.44,4186.15,4186.15,4185.13,4180,4185.13,4181.03,4187.18,4189.74,4236.92,4948.21,4175.9,4187.69,2046,2039,91.958,0,0,0,0,
127,4190.26,4187.69,4187.18,4184.62,4178.97,4176.41,4175.9,4181.03,4189.74,4189.74,4241.03,4949.74,4192.82,4194.36,2045,2038,91.964,0,0,0,0,
128,4170.77,4175.38,4182.56,4183.59,4181.54,4182.05,4184.1,4184.62,4186.15,4189.23,4238.46,4946.67,4180,4184.1,2044,2039,91.972,0,0,0,0,
0,4187.18,4184.1,4187.69,4187.18,4179.49,4178.46,4176.92,4184.62,4185.13,4190.77,4244.62,4952.82,4187.18,4192.31,2043,2037,91.98,0,0,0,0,
1,4184.62,4181.54,4183.08,4181.03,4181.03,4178.46,4177.44,4187.18,4187.69,4192.82,4241.03,4946.67,4187.18,4190.26,2044,2037,91.988,0,0,0,0,
2,4170.77,4173.33,4185.64,4181.54,4183.59,4185.64,4186.15,4180.51,4182.56,4188.72,4238.46,4948.21,4177.44,4185.13,2046,2038,91.996,0,0,0,0,
3,4190.77,4187.18,4186.67,4181.03,4176.92,4179.49,4174.36,4181.03,4190.26,4189.23,4241.54,4949.74,4195.9,4194.87,2044,2039,92.005,0,0,0,0,
4,4175.38,4179.49,4181.54,4182.56,4183.59,4181.03,4182.05,4186.15,4187.69,4193.85,4236.92,4946.15,4180.51,4184.62,2044,2038,92.012,0,0,0,0,
5,4185.13,4182.05,4185.64,4184.62,4181.54,4179.49,4178.46,4183.59,4183.59,4195.9,4243.08,4952.82,4184.1,4192.82,2044,2039,92.02,0,0,0,0,
6,4185.13,4183.08,4183.08,4181.54,4178.46,4178.46,4176.92,4184.62,4191.79,4190.77,4238.97,4948.72,4187.18,4193.85,2044,2037,92.028,0,0,0,0,
7,4174.36,4181.03,4187.18,4187.18,4184.1,4183.08,4187.69,4182.05,4187.18,4185.64,4235.38,4951.28,4174.87,4184.62,2045,2038,92.035,0,0,0,0,
8,4196.41,4188.72,4188.72,4182.05,4178.46,4177.44,4176.41,4182.05,4187.69,4191.79,4245.13,4952.82,4193.85,4194.87,2043,2038,92.043,0,0,0,0,
9,4177.44,4173.85,4183.08,4180.51,4181.54,4181.54,4180.51,4185.64,4188.21,4190.77,4240,4943.59,4180.51,4185.64,2045,2037,92.052,0,0,0,0,
10,4182.56,4178.97,4187.69,4187.69,4181.03,4179.49,4178.46,4183.08,4187.69,4186.15,4240,4950.77,4182.05,4190.77,2043,2039,92.059,0,0,0,0,
11,4189.23,4184.1,4183.08,4180.51,4178.97,4175.9,4178.97,4184.1,4191.28,4190.77,4241.03,4949.23,4190.77,4193.33,2044,2039,92.067,0,0,0,0,
12,4175.9,4178.46,4181.54,4181.03,4183.59,4184.62,4189.23,4184.1,4183.08,4192.82,4240,4947.18,4176.41,4182.56,2045,2037,92.079,0,0,0,0,
13,4193.85,4189.23,4184.62,4185.13,4176.92,4178.97,4175.9,4187.69,4186.15,4192.82,4243.08,4951.28,4192.82,4194.87,2045,2038,92.083,0,0,0,0,
14,4176.41,4177.44,4183.08,4184.62,4183.08,4180,4181.54,4188.21,4188.21,4190.26,4236.92,4946.15,4180.51,4188.21,2043,2038,92.091,0,0,0,0,
15,4181.54,4180.51,4187.18,4183.08,4186.67,4180.51,4183.08,4181.54,4184.1,4190.77,4241.03,4948.21,4178.46,4190.77,2044,2037,92.098,0,0,0,0,
16,4191.28,4186.67,4181.54,4176.92,4178.97,4176.41,4177.95,4187.69,4190.77,4191.79,4241.54,4946.15,4191.79,4195.38,2044,2038,92.106,0,0,0,0,
17,4174.87,4174.87,4181.54,4186.15,4181.54,4184.1,4185.64,4187.69,4185.13,4186.67,4236.41,4948.72,4177.44,4185.64,2044,2037,92.114,0,0,0,0,
18,4192.31,4185.13,4186.15,4188.72,4178.97,4177.95,4175.38,4183.59,4186.15,4190.26,4243.08,4951.79,4189.23,4196.41,2045,2038,92.124,0,0,0,0,
19,4177.95,4180,4180.51,4180.51,4184.1,4178.97,4183.59,4187.18,4189.23,4192.82,4237.95,4943.59,4181.03,4189.23,2044,2037,92.13,0,0,0,0,
20,4180.51,4179.49,4186.67,4184.62,4182.56,4184.62,4186.15,4183.08,4186.67,4189.23,4236.92,4949.23,4180,4189.23,2044,2036,92.139,0,0,0,0,
21,4190.77,4185.64,4185.13,4183.08,4175.9,4180,4176.41,4182.56,4190.77,4190.77,4237.95,4948.21,4190.77,4194.87,2045,2039,92.146,0,0,0,0,
22,4171.28,4175.38,4183.08,4184.1,4182.56,4182.56,4184.62,4184.1,4183.08,4191.28,4236.41,4946.67,4172.31,4183.08,2045,2039,92.154,0,0,0,0,
23,4190.77,4182.56,4186.15,4184.62,4179.49,4177.95,4176.41,4184.1,4184.62,4191.79,4243.59,4953.33,4186.15,4192.31,2045,2037,92.162,0,0,0,0,
24,4180,4178.46,4181.54,4182.05,4181.03,4181.03,4182.56,4185.64,4189.23,4191.28,4240.51,4948.21,4183.59,4187.18,2045,2038,92.169,0,0,0,0,
25,4175.9,4182.05,4185.64,4185.13,4182.05,4187.18,4186.15,4182.05,4184.1,4190.26,4242.05,4952.31,4179.49,4186.67,2046,2039,92.177,0,0,0,0,
26,4190.26,4189.23,4185.13,4182.56,4176.92,4181.03,4175.9,4186.15,4188.21,4192.82,4241.54,4948.72,4193.33,4194.87,2044,2038,92.185,0,0,0,0,
27,4171.79,4174.36,4183.08,4187.18,4185.13,4182.56,4186.15,4186.67,4184.1,4189.23,4234.36,4941.54,4174.87,4185.64,2044,2038,92.193,0,0,0,0,
28,4189.74,4184.62,4185.13,4187.69,4180,4179.49,4178.46,4182.56,4186.15,4189.23,4244.62,4951.28,4187.69,4195.9,2044,2038,92.201,0,0,0,0,
29,4185.13,4182.56,4180,4181.03,4178.97,4180,4180.51,4182.05,4190.77,4192.82,4242.05,4949.23,4186.67,4188.72,2045,2038,92.209,0,0,0,0,
30,4176.92,4178.46,4185.64,4186.67,4187.69,4182.05,4185.64,4177.95,4185.13,4191.28,4238.46,4949.74,4176.41,4182.56,2044,2038,92.218,0,0,0,0,
31,4189.23,4187.69,4183.59,4184.62,4184.62,4176.92,4175.38,4183.08,4188.21,4190.26,4242.05,4950.77,4191.79,4193.85,2045,2038,92.225,0,0,0,0,
32,4169.74,4174.87,4178.46,4184.62,4184.1,4184.62,4186.15,4186.67,4186.15,4188.72,4235.9,4950.26,4176.41,4185.13,2044,2037,92.245,0,0,0,0,
33,4186.15,4182.05,4184.62,4185.64,4180,4181.03,4180,4183.59,4185.64,4191.79,4240,4955.38,4184.1,4191.28,2045,2039,92.245,0,0,0,0,
34,4185.13,4182.56,4182.05,4180,4181.03,4176.92,4176.92,4184.62,4186.15,4191.79,4239.49,4947.69,4185.64,4187.69,2044,2038,92.249,0,0,0,0,
35,4177.44,4176.41,4185.13,4185.13,4184.62,4182.56,4183.59,4183.59,4181.03,4185.64,4240.51,4948.72,4177.44,4182.56,2044,2039,92.257,0,0,0,0,
36,4193.85,4186.15,4184.1,4183.08,4181.54,4179.49,4177.44,4185.64,4190.26,4188.72,4244.62,4948.72,4194.36,4192.31,2045,2038,92.264,0,0,0,0,
37,4171.79,4180.51,4181.03,4182.05,4187.69,4182.56,4187.18,4182.56,4186.15,4190.77,4239.49,4943.59,4177.95,4183.59,2043,2038,92.272,0,0,0,0,
38,4185.64,4187.18,4187.69,4184.62,4181.54,4180,4177.95,4179.49,4179.49,4190.77,4243.08,4949.74,4185.13,4191.28,2044,2038,92.28,0,0,0,0,
39,4188.21,4183.59,4183.08,4181.03,4180.51,4180.51,4174.87,4186.15,4187.18,4189.23,4240,4945.64,4188.72,4188.72,2045,2038,92.289,0,0,0,0,
40,4174.36,4177.44,4182.56,4185.13,4187.18,4186.67,4183.59,4183.59,4186.15,4187.69,4237.95,4948.72,4174.36,4181.03,2045,2038,92.296,0,0,0,0,
41,4193.33,4189.74,4183.08,4180,4178.46,4177.95,4172.31,4183.59,4190.26,4191.28,4243.08,4952.31,4192.31,4195.9,2045,2040,92.303,0,0,0,0,
42,4177.44,4180,4180.51,4178.97,4182.56,4180.51,4182.56,4185.64,4189.23,4189.74,4238.97,4948.72,4180,4186.67,2045,2039,92.311,0,0,0,0,
43,4185.64,4186.15,4185.13,4187.18,4182.56,4178.97,4182.56,4181.03,4184.62,4188.72,4243.59,4953.33,4182.05,4186.67,2044,2038,92.319,0,0,0,0,
44,4187.69,4188.21,4181.54,4183.59,4178.97,4173.85,4178.97,4185.64,4187.18,4190.26,4242.56,4946.67,4187.69,4191.28,2045,2039,92.327,0,0,0,0,
45,4173.33,4175.38,4186.15,4185.64,4187.69,4182.05,4187.18,4186.67,4183.59,4186.67,4238.46,4948.21,4173.85,4187.69,2044,2039,92.337,0,0,0,0,
46,4192.31,4185.13,4186.15,4185.13,4183.59,4178.97,4177.44,4185.64,4188.21,4191.28,4243.08,4953.85,4192.31,4193.33,2044,2038,92.343,0,0,0,0,
47,4176.92,4180,4177.95,4181.54,4186.15,4181.03,4184.62,4185.64,4186.67,4194.36,4238.46,4948.21,4181.03,4181.54,2045,2037,92.351,0,0,0,0,
48,4182.05,4183.08,4182.56,4183.08,4187.18,4181.54,4183.59,4182.05,4182.56,4188.72,4242.05,4952.82,4181.54,4190.26,2043,2038,92.358,0,0,0,0,
49,4187.18,4184.1,4181.54,4180.51,4182.05,4177.44,4177.44,4184.62,4189.74,4186.67,4241.03,4947.18,4192.82,4195.9,2044,2038,92.366,0,0,0,0,
50,4170.77,4175.38,4184.62,4185.64,4184.62,4183.08,4186.67,4185.13,4185.64,4187.69,4235.9,4946.67,4176.41,4183.08,2045,2038,92.374,0,0,0,0,
51,4191.28,4188.21,4187.69,4185.64,4176.41,4181.54,4180,4183.59,4186.67,4190.26,4242.56,4953.33,4188.21,4193.33,2044,2038,92.382,0,0,0,0,
52,4178.97,4180,4181.03,4184.1,4179.49,4183.59,4184.62,4184.1,4186.15,4191.28,4239.49,4946.67,4179.49,4188.21,2044,2039,92.39,0,0,0,0,
53,4182.05,4178.97,4185.64,4187.69,4183.59,4182.05,4183.59,4184.62,4182.05,4193.33,4240.51,4952.31,4179.49,4188.21,2044,2038,92.398,0,0,0,0,
54,4190.26,4185.13,4183.08,4181.03,4177.95,4175.38,4181.03,4189.74,4190.77,4194.87,4240.51,4950.77,4191.28,4193.33,2045,2037,92.406,0,0,0,0,
55,4170.77,4178.97,4181.54,4184.62,4181.03,4182.56,4190.77,4184.62,4187.18,4189.23,4238.46,4946.67,4174.36,4183.59,2045,2037,92.414,0,0,0,0,
56,4188.72,4189.74,4185.64,4187.18,4179.49,4179.49,4176.41,4179.49,4187.18,4188.72,4243.08,4951.28,4188.72,4193.85,2045,2038,92.421,0,0,0,0,
57,4177.95,4178.46,4181.54,4182.56,4184.62,4180,4181.03,4186.15,4187.69,4190.26,4235.38,4946.67,4184.1,4188.21,2044,2037,92.429,0,0,0,0,
58,4177.44,4176.41,4186.15,4185.64,4181.54,4182.56,4187.18,4187.18,4182.05,4190.77,4238.46,4951.28,4178.46,4187.69,2044,2038,92.44,0,0,0,0,
59,4190.26,4186.15,4184.62,4181.54,4176.92,4177.44,4177.44,4185.13,4190.26,4190.26,4245.13,4950.26,4191.79,4191.79,2044,2037,92.445,0,0,0,0,
60,4170.77,4175.9,4182.05,4184.62,4189.23,4183.08,4183.59,4182.05,4187.18,4185.13,4238.97,4948.21,4176.92,4179.49,2044,2037,92.454,0,0,0,0,
61,4189.23,4185.64,4185.13,4187.69,4185.13,4180.51,4175.9,4183.59,4186.15,4189.23,4242.56,4953.33,4190.77,4192.31,2045,2038,92.461,0,0,0,0,
62,4181.54,4183.08,4182.56,4182.05,4182.05,4180,4180.51,4189.23,4189.23,4195.38,4238.46,4945.64,4184.1,4189.74,2045,2039,92.469,0,0,0,0,
63,4175.9,4180,4186.15,4185.64,4185.13,4182.56,4185.13,4184.62,4185.13,4193.33,4239.49,4950.26,4173.85,4186.67,2044,2037,92.477,0,0,0,0,
64,4194.87,4188.21,4182.56,4181.54,4179.49,4175.9,4175.38,4187.18,4189.74,4192.31,4242.56,4952.31,4190.77,4194.87,2044,2039,92.485,0,0,0,0,
65,4176.41,4176.92,4182.05,4181.03,4182.05,4182.56,4185.13,4187.18,4183.59,4188.21,4237.95,4946.67,4176.92,4183.08,2045,2038,92.492,0,0,0,0,
66,4186.67,4183.59,4187.69,4184.62,4176.41,4181.54,4177.95,4182.56,4183.59,4187.69,4244.1,4949.74,4186.67,4192.31,2045,2038,92.5,0,0,0,0,
67,4180.51,4181.54,4180,4181.54,4178.97,4180,4180,4186.15,4190.77,4190.26,4241.03,4946.67,4186.15,4191.79,2044,2038,92.509,0,0,0,0,
68,4174.36,4180,4184.62,4187.69,4187.69,4184.62,4188.72,4185.64,4183.08,4190.26,4238.46,4951.28,4176.92,4184.62,2044,2038,92.517,0,0,0,0,
69,4191.28,4188.72,4188.21,4185.13,4180.51,4177.95,4176.92,4188.21,4184.62,4194.36,4241.54,4948.21,4194.36,4192.82,2045,2038,92.524,0,0,0,0,
70,4170.77,4174.87,4182.56,4183.08,4182.56,4182.56,4184.1,4187.18,4185.13,4192.31,4237.44,4944.62,4178.46,4185.64,2044,2038,92.533,0,0,0,0,
71,4185.64,4183.08,4185.13,4186.15,4181.03,4181.54,4181.03,4183.59,4187.18,4190.77,4242.56,4955.9,4184.62,4193.33,2045,2039,92.54,0,0,0,0,
72,4186.67,4182.05,4183.08,4183.59,4179.49,4177.95,4182.56,4186.67,4191.79,4193.33,4240.51,4948.21,4187.18,4188.21,2045,2038,92.548,0,0,0,0,
73,4173.85,4173.85,4187.69,4185.64,4182.56,4182.56,4187.18,4186.15,4185.13,4193.33,4238.97,4944.62,4176.92,4181.03,2044,2039,92.555,0,0,0,0,
74,4190.77,4188.21,4187.69,4182.05,4178.46,4178.46,4175.38,4187.69,4188.72,4195.38,4244.1,4948.72,4194.87,4194.87,2045,2038,92.563,0,0,0,0,
75,4173.85,4181.54,4183.08,4181.03,4185.13,4184.1,4187.18,4188.72,4186.15,4193.85,4240,4945.64,4180.51,4185.64,2044,2036,92.572,0,0,0,0,
76,4185.64,4182.56,4187.69,4185.13,4182.56,4181.54,4182.56,4185.64,4185.64,4192.31,4244.62,4950.77,4185.13,4190.26,2044,2039,92.579,0,0,0,0,
77,4186.15,4181.03,4184.1,4183.08,4180.51,4178.46,4176.92,4186.67,4193.33,4191.28,4240,4948.72,4191.79,4191.28,2045,2037,92.587,0,0,0,0,
78,4170.26,4177.44,4185.13,4186.67,4186.67,4185.13,4187.69,4184.1,4186.15,4186.67,4234.87,4950.77,4176.92,4182.56,2045,2038,92.595,0,0,0,0,
79,4192.31,4189.23,4185.13,4182.56,4180.51,4178.46,4177.44,4185.13,4186.67,4192.31,4243.59,4950.77,4192.31,4195.38,2045,2039,92.603,0,0,0,0,
80,4177.95,4179.49,4180.51,4181.03,4185.13,4181.03,4182.56,4184.62,4187.18,4195.38,4239.49,4943.59,4181.03,4187.69,2044,2039,92.611,0,0,0,0,
81,4182.56,4183.59,4185.13,4187.18,4185.13,4181.54,4181.54,4180.51,4185.64,4192.31,4239.49,4950.26,4181.54,4189.74,2044,2037,92.619,0,0,0,0,
82,4188.72,4185.64,4181.03,4182.56,4178.46,4175.9,4176.41,4187.18,4189.74,4189.74,4241.03,4947.69,4189.74,4190.77,2043,2039,92.628,0,0,0,0,
83,4174.36,4175.9,4183.08,4186.67,4182.05,4180,4183.08,4187.69,4182.05,4188.21,4240,4946.15,4175.38,4184.62,2044,2040,92.634,0,0,0,0,
84,4191.28,4185.13,4187.18,4187.69,4177.44,4176.41,4173.33,4183.08,4184.62,4192.82,4244.1,4948.72,4192.82,4197.44,2045,2038,92.643,0,0,0,0,
85,4175.38,4174.87,4183.59,4184.1,4182.56,4182.05,4182.56,4184.1,4188.21,4193.85,4237.95,4944.1,4183.59,4188.21,2045,2038,92.651,0,0,0,0,
86,4180.51,4178.46,4187.69,4188.21,4185.64,4184.1,4184.62,4184.1,4186.67,4191.28,4240.51,4951.79,4182.05,4189.23,2043,2038,92.659,0,0,0,0,
87,4189.23,4186.67,4183.08,4182.56,4181.54,4177.95,4175.38,4189.23,4189.23,4193.33,4240,4949.23,4190.77,4191.79,2043,2037,92.666,0,0,0,0,
88,4171.79,4174.87,4182.05,4184.62,4186.15,4182.05,4182.05,4187.69,4182.05,4192.82,4235.38,4948.21,4173.33,4182.05,2044,2037,92.675,0,0,0,0,
89,4190.77,4181.03,4185.64,4185.13,4182.56,4178.46,4174.87,4180.51,4187.69,4192.31,4244.1,4954.36,4190.77,4194.87,2044,2038,92.682,0,0,0,0,
90,4177.95,4177.44,4181.03,4180,4184.62,4180,4184.62,4182.05,4190.77,4189.23,4238.97,4947.69,4184.1,4188.21,2044,2038,92.689,0,0,0,0,
91,4178.97,4182.05,4184.62,4186.15,4181.54,4180.51,4185.64,4183.59,4182.56,4187.69,4240,4948.72,4178.46,4187.18,2044,2038,92.697,0,0,0,0,
92,4190.77,4185.64,4183.59,4183.59,4177.44,4175.9,4176.41,4186.67,4185.13,4190.26,4243.08,4946.67,4191.28,4194.87,2044,2037,92.705,0,0,0,0,
93,4169.74,4171.28,4185.13,4184.62,4185.64,4184.1,4188.21,4182.05,4183.08,4188.21,4236.92,4946.67,4174.87,4184.62,2045,2038,92.713,0,0,0,0,
94,4189.74,4185.13,4189.23,4186.67,4177.44,4180,4179.49,4180.51,4185.13,4190.77,4240.51,4950.77,4189.23,4192.82,2044,2038,92.721,0,0,0,0,
95,4185.64,4183.08,4182.56,4185.13,4178.97,4179.49,4181.03,4186.67,4186.67,4192.31,4237.44,4942.56,4186.15,4189.23,2045,2038,92.729,0,0,0,0,
96,4179.49,4178.97,4185.13,4187.69,4186.67,4182.56,4182.05,4182.56,4180.51,4189.74,4240.51,4949.74,4179.49,4189.23,2044,2038,92.737,0,0,0,0,
97,4190.26,4186.15,4182.56,4183.08,4180.51,4177.44,4170.26,4183.08,4189.23,4191.79,4243.59,4951.79,4193.85,4196.92,2045,2037,92.745,0,0,0,0,
98,4172.82,4178.97,4180.51,4186.15,4183.08,4186.15,4184.1,4185.13,4187.69,4190.77,4237.44,4946.15,4178.46,4184.1,2045,2039,92.752,0,0,0,0,
99,4188.21,4188.72,4185.64,4188.21,4179.49,4184.1,4181.03,4184.1,4185.64,4189.23,4241.54,4951.28,4188.21,4192.82,2044,2036,92.76,0,0,0,0,
100,4180,4181.03,4181.03,4180.51,4181.54,4177.95,4178.46,4185.13,4186.67,4191.28,4238.46,4946.15,4185.64,4187.18,2043,2037,92.768,0,0,0,0,
101,4173.33,4174.87,4184.62,4183.59,4186.15,4181.54,4182.05,4180.51,4181.54,4192.82,4239.49,4949.23,4176.41,4181.54,2045,2038,92.776,0,0,0,0,
102,4192.31,4185.13,4185.13,4182.05,4178.46,4177.95,4176.41,4183.08,4188.21,4193.85,4243.08,4951.79,4193.85,4193.85,2045,2038,92.784,0,0,0,0,
103,4174.36,4177.44,4183.08,4184.62,4183.59,4182.56,4187.69,4185.64,4187.18,4188.21,4236.92,4948.72,4181.54,4184.62,2046,2038,92.792,0,0,0,0,
104,4186.67,4186.67,4188.72,4187.69,4184.62,4180,4178.46,4183.08,4184.62,4187.69,4241.54,4952.82,4187.18,4190.26,2044,2039,92.8,0,0,0,0,
105,4183.59,4182.05,4182.56,4181.54,4184.1,4178.97,4175.38,4183.08,4189.23,4189.23,4240,4947.18,4184.62,4190.26,2044,2037,92.808,0,0,0,0,
106,4175.38,4174.36,4184.1,4186.67,4183.59,4181.54,4184.62,4180.51,4184.1,4187.69,4238.46,4950.77,4174.87,4186.15,2044,2037,92.817,0,0,0,0,
107,4193.85,4188.21,4186.67,4183.59,4176.92,4175.38,4177.95,4186.67,4189.23,4190.77,4239.49,4951.79,4194.87,4195.38,2043,2038,92.823,0,0,0,0,
108,4174.36,4180.51,4183.59,4180.51,4183.08,4180.51,4185.13,4190.77,4186.15,4189.23,4233.85,4946.15,4180.51,4185.13,2044,2038,92.831,0,0,0,0,
109,4186.67,4184.1,4185.64,4185.64,4180,4180,4176.41,4185.13,4181.54,4191.28,4243.59,4952.31,4185.64,4190.26,2044,2037,92.839,0,0,0,0,
110,4186.15,4185.13,4182.05,4182.56,4178.46,4178.97,4174.87,4185.64,4187.69,4195.38,4242.05,4947.18,4189.74,4191.28,2044,2038,92.847,0,0,0,0,
111,4170.26,4178.97,4186.15,4183.59,4182.56,4185.64,4187.18,4183.59,4185.64,4193.85,4234.87,4947.69,4173.85,4185.13,2044,2037,92.855,0,0,0,0,
112,4191.79,4188.72,4185.13,4181.54,4176.41,4177.95,4178.97,4182.05,4188.21,4195.9,4240.51,4949.74,4190.77,4194.87,2045,2038,92.863,0,0,0,0,
113,4176.92,4180,4180.51,4181.54,4183.08,4181.03,4185.64,4181.03,4185.13,4194.36,4238.46,4945.64,4177.95,4185.64,2044,2038,92.87,0,0,0,0,
114,4182.56,4183.08,4185.13,4182.05,4183.08,4181.54,4178.97,4180,4184.1,4189.74,4242.56,4951.79,4182.05,4190.26,2044,2038,92.878,0,0,0,0,
115,4186.15,4183.59,4180.51,4178.46,4177.95,4177.95,4174.36,4185.64,4189.74,4189.74,4240.51,4946.15,4191.28,4191.28,2044,2038,92.886,0,0,0,0,
116,4172.82,4177.95,4183.59,4187.18,4183.59,4184.62,4188.72,4182.05,4182.56,4190.26,4235.9,4944.1,4174.36,4183.59,2045,2037,92.895,0,0,0,0,
117,4192.31,4189.23,4188.21,4187.18,4179.49,4178.97,4179.49,4181.54,4186.15,4194.36,4242.05,4949.74,4189.23,4194.87,2044,2038,92.902,0,0,0,0,
118,4175.38,4177.44,4183.08,4183.59,4184.1,4178.97,4181.54,4186.15,4186.15,4192.31,4238.46,4948.72,4181.03,4185.64,2044,2037,92.91,0,0,0,0,
119,4182.05,4179.49,4186.67,4187.69,4185.13,4180.51,4181.03,4181.54,4182.05,4189.74,4242.56,4955.38,4184.1,4190.26,2044,2036,92.918,0,0,0,0,
120,4192.82,4186.67,4184.1,4181.03,4178.46,4176.41,4178.97,4183.08,4190.26,4192.82,4243.08,4949.74,4193.33,4195.9,2045,2037,92.926,0,0,0,0,
121,4172.31,4177.95,4183.59,4184.62,4182.56,4183.08,4187.69,4182.05,4185.64,4192.31,4237.44,4948.21,4174.87,4185.13,2045,2038,92.934,0,0,0,0,
122,4186.67,4187.18,4185.64,4187.69,4177.95,4181.54,4176.92,4181.54,4187.18,4194.87,4242.56,4951.79,4189.74,4195.9,2045,2038,92.942,0,0,0,0,
123,4175.38,4177.95,4181.54,4183.08,4180,4183.08,4183.59,4185.64,4188.21,4195.38,4239.49,4944.62,4180.51,4188.72,2044,2037,92.952,0,0,0,0,
124,4180,4181.03,4185.64,4184.62,4181.54,4185.13,4184.1,4183.59,4183.59,4191.79,4240,4950.77,4178.46,4191.28,2043,2037,92.958,0,0,0,0,
125,4190.77,4187.69,4183.08,4180.51,4178.46,4181.54,4175.9,4184.62,4190.77,4191.79,4239.49,4949.23,4194.36,4195.9,2045,2038,92.965,0,0,0,0,
126,4169.74,4174.36,4184.1,4184.1,4185.13,4185.13,4185.64,4184.1,4187.18,4190.26,4236.92,4945.13,4176.92,4182.56,2045,2038,92.973,0,0,0,0,
127,4189.23,4187.18,4186.67,4185.64,4179.49,4177.95,4175.38,4182.05,4185.64,4192.82,4244.62,4951.79,4186.15,4194.36,2044,2039,92.981,0,0,0,0,
128,4180.51,4184.62,4179.49,4181.03,4180,4180,4180.51,4182.56,4188.21,4192.31,4238.97,4947.18,4182.56,4189.74,2044,2038,92.989,0,0,0,0,
0,4176.92,4180,4186.15,4185.64,4182.56,4182.56,4187.18,4180.51,4187.18,4187.69,4238.46,4947.18,4178.97,4184.1,2044,2038,92.997,0,0,0,0,
1,4188.21,4186.67,4186.67,4184.1,4178.97,4176.41,4178.46,4186.67,4190.26,4191.28,4241.54,4944.62,4191.28,4191.79,2045,2039,93.005,0,0,0,0,
2,4169.23,4177.44,4183.08,4186.15,4187.18,4183.59,4186.67,4186.15,4185.13,4192.31,4236.92,4944.1,4175.38,4184.62,2045,2038,93.012,0,0,0,0,
3,4187.69,4183.59,4188.21,4186.15,4184.62,4180.51,4178.46,4181.03,4186.67,4191.79,4243.59,4953.85,4188.72,4193.33,2044,2037,93.021,0,0,0,0,
4,4183.08,4177.95,4184.1,4180,4182.56,4180.51,4183.08,4185.13,4187.69,4191.28,4242.05,4948.72,4186.67,4188.72,2045,2038,93.028,0,0,0,0,
5,4175.38,4176.41,4186.15,4183.59,4184.62,4185.13,4187.69,4184.62,4181.54,4189.23,4240.51,4948.21,4178.46,4186.67,2045,2038,93.036,0,0,0,0,
6,4188.72,4184.1,4183.59,4182.05,4181.03,4177.95,4174.36,4183.08,4190.77,4190.26,4242.05,4948.21,4194.36,4195.38,2043,2038,93.044,0,0,0,0,
7,4172.31,4175.38,4181.03,4185.13,4184.1,4184.1,4184.62,4182.05,4188.21,4188.72,4237.95,4947.69,4176.92,4185.13,2044,2037,93.053,0,0,0,0,
8,4186.67,4186.15,4185.64,4186.67,4178.46,4181.03,4182.05,4183.08,4184.62,4190.77,4242.05,4954.87,4185.13,4192.82,2045,2036,93.059,0,0,0,0,
9,4181.54,4183.59,4180.51,4178.46,4178.97,4177.44,4180.51,4186.15,4188.21,4190.77,4239.49,4946.15,4188.21,4188.72,2044,2038,93.067,0,0,0,0,
10,4174.87,4177.44,4183.59,4182.05,4184.62,4184.1,4183.08,4180.51,4183.59,4188.72,4241.54,4946.15,4179.49,4184.1,2046,2038,93.075,0,0,0,0,
11,4192.82,4184.62,4186.15,4182.56,4176.92,4179.49,4173.33,4183.59,4188.72,4193.33,4244.62,4948.72,4193.33,4196.92,2043,2038,93.083,0,0,0,0,
12,4173.33,4174.87,4184.1,4185.13,4181.03,4183.08,4184.1,4190.26,4187.69,4190.77,4235.38,4945.13,4176.41,4186.15,2044,2038,93.092,0,0,0,0,
13,4185.13,4185.64,4188.21,4188.72,4179.49,4183.59,4179.49,4185.13,4186.15,4188.72,4242.05,4954.36,4185.13,4189.74,2044,2039,93.101,0,0,0,0,
14,4184.1,4185.13,4184.62,4181.54,4180.51,4180,4178.46,4183.08,4188.21,4192.31,4243.08,4949.23,4189.74,4188.72,2044,2038,93.107,0,0,0,0,
15,4173.33,4173.33,4186.67,4185.64,4184.62,4182.56,4186.67,4182.56,4180,4193.33,4240,4946.67,4177.95,4184.62,2043,2040,93.116,0,0,0,0,
16,4193.85,4184.62,4185.13,4184.1,4176.92,4180,4176.92,4185.64,4188.21,4193.33,4243.59,4951.28,4195.38,4198.97,2044,2038,93.123,0,0,0,0,
17,4173.85,4180,4182.56,4182.05,4183.59,4185.13,4188.21,4184.1,4189.74,4188.72,4238.46,4951.28,4178.97,4188.21,2045,2038,93.131,0,0,0,0,
18,4183.59,4186.67,4190.26,4185.64,4182.56,4180.51,4183.08,4181.54,4182.56,4187.69,4244.62,4954.36,4182.05,4188.72,2044,2037,93.139,0,0,0,0,
19,4188.72,4186.15,4184.62,4182.05,4178.97,4176.41,4174.87,4187.18,4188.21,4188.72,4244.1,4945.64,4190.77,4189.74,2044,2037,93.146,0,0,0,0,
20,4171.79,4174.87,4183.59,4186.67,4185.13,4184.62,4184.1,4183.08,4188.21,4186.67,4237.44,4949.23,4176.41,4183.08,2045,2037,93.154,0,0,0,0,
21,4193.85,4186.15,4186.15,4185.64,4177.95,4180,4176.41,4184.1,4189.23,4191.79,4241.03,4956.41,4191.79,4193.33,2045,2038,93.162,0,0,0,0,
22,4181.03,4181.54,4182.05,4181.03,4180.51,4183.08,4183.08,4190.26,4184.1,4194.87,4237.44,4948.72,4181.03,4183.59,2044,2038,93.171,0,0,0,0,
23,4183.08,4184.1,4185.13,4183.59,4183.59,4182.56,4181.54,4186.15,4182.05,4191.28,4241.54,4948.21,4181.54,4187.69,2045,2038,93.178,0,0,0,0,
24,4186.67,4183.59,4182.05,4181.03,4181.54,4177.95,4178.46,4186.67,4191.28,4189.23,4240.51,4943.59,4191.28,4192.31,2045,2037,93.186,0,0,0,0,
25,4170.77,4173.85,4183.08,4186.67,4183.59,4185.64,4188.21,4185.64,4182.56,4190.77,4235.9,4947.18,4176.92,4185.64,2045,2038,93.194,0,0,0,0,
26,4189.74,4186.15,4185.13,4187.18,4176.92,4179.49,4176.41,4184.62,4183.59,4195.38,4242.56,4951.28,4191.28,4197.44,2045,2038,93.202,0,0,0,0,
27,4177.44,4178.46,4183.59,4182.05,4182.56,4177.44,4182.05,4186.67,4187.18,4189.23,4238.97,4943.08,4181.54,4186.15,2045,2039,93.209,0,0,0,0,
28,4181.03,4180.51,4189.23,4185.13,4184.1,4179.49,4182.05,4182.56,4184.1,4184.62,4240.51,4950.26,4180.51,4186.67,2044,2038,93.217,0,0,0,0,
29,4189.23,4186.15,4184.1,4181.54,4176.92,4178.46,4174.36,4185.13,4189.23,4191.79,4241.03,4947.18,4193.85,4194.87,2044,2038,93.225,0,0,0,0,
30,4171.28,4176.41,4184.62,4185.13,4181.54,4185.13,4186.15,4183.59,4185.64,4192.31,4236.92,4942.56,4176.92,4183.59,2045,2038,93.233,0,0,0,0,
31,4192.31,4188.21,4188.72,4185.64,4180,4179.49,4177.95,4182.56,4187.18,4191.28,4242.56,4949.74,4189.74,4190.77,2044,2037,93.241,0,0,0,0,
32,4181.03,4180.51,4180.51,4180.51,4183.59,4180,4181.54,4185.13,4186.67,4194.36,4238.46,4946.67,4184.62,4186.67,2045,2038,93.252,0,0,0,0,
33,4177.95,4177.44,4185.13,4185.13,4184.62,4181.54,4183.59,4180,4182.56,4193.85,4238.46,4950.77,4181.54,4190.26,2044,2038,93.257,0,0,0,0,
34,4190.26,4185.64,4183.59,4182.05,4180,4175.38,4173.85,4182.56,4189.23,4192.82,4242.05,4949.74,4193.33,4195.9,2044,2037,93.265,0,0,0,0,
35,4171.28,4178.97,4178.97,4183.08,4183.59,4182.05,4185.13,4185.13,4184.1,4190.77,4238.46,4946.67,4174.36,4182.05,2044,2038,93.272,0,0,0,0,
36,4188.21,4190.26,4184.62,4182.05,4177.44,4177.44,4180,4183.08,4182.56,4190.26,4241.54,4949.74,4185.64,4191.79,2043,2037,93.28,0,0,0,0,
37,4180.51,4182.56,4182.05,4177.44,4183.59,4177.44,4181.54,4185.64,4187.69,4189.74,4236.41,4943.08,4181.54,4189.74,2045,2038,93.288,0,0,0,0,
38,4175.9,4176.41,4185.64,4184.1,4188.72,4183.59,4182.05,4183.59,4185.64,4192.31,4238.97,4948.21,4174.87,4188.72,2043,2039,93.296,0,0,0,0,
39,4190.26,4184.62,4183.59,4182.56,4176.92,4178.97,4174.36,4183.59,4190.77,4193.85,4243.08,4950.26,4191.28,4197.44,2043,2038,93.305,0,0,0,0,
40,4171.28,4175.9,4180.51,4184.1,4182.05,4181.54,4187.18,4184.62,4187.18,4188.21,4235.9,4946.67,4175.38,4185.13,2044,2036,93.312,0,0,0,0,
41,4187.69,4185.64,4183.08,4185.13,4178.97,4176.41,4178.46,4183.08,4186.67,4191.79,4244.62,4948.72,4187.18,4192.82,2045,2037,93.32,0,0,0,0,
42,4181.54,4183.08,4181.03,4178.46,4177.44,4177.95,4175.9,4184.62,4190.26,4194.87,4242.56,4942.56,4188.21,4191.79,2045,2039,93.328,0,0,0,0,
43,4173.85,4177.44,4186.15,4184.62,4185.13,4184.62,4182.56,4183.08,4181.54,4192.31,4236.41,4949.23,4179.49,4185.64,2043,2038,93.336,0,0,0,0,
44,4191.28,4185.13,4184.1,4185.13,4180.51,4176.92,4174.87,4185.13,4183.59,4194.36,4240.51,4950.26,4195.9,4193.85,2043,2039,93.343,0,0,0,0,
45,4173.33,4175.9,4182.56,4182.56,4182.56,4178.97,4181.54,4184.62,4182.56,4190.77,4240,4945.13,4179.49,4188.21,2044,2039,93.351,0,0,0,0,
46,4188.72,4183.08,4189.23,4183.08,4183.59,4177.44,4174.87,4183.59,4184.62,4189.74,4244.62,4952.31,4185.64,4196.41,2045,2037,93.359,0,0,0,0,
47,4187.18,4182.05,4183.08,4180.51,4182.56,4178.97,4177.44,4188.72,4189.74,4195.9,4236.41,4946.67,4188.21,4191.28,2044,2038,93.367,0,0,0,0,
48,4173.85,4179.49,4186.15,4188.21,4181.54,4187.18,4187.69,4185.13,4181.03,4193.85,4235.9,4947.69,4180,4183.59,2044,2039,93.375,0,0,0,0,
49,4191.28,4189.23,4187.18,4185.13,4175.38,4180.51,4175.38,4184.62,4184.62,4190.77,4245.64,4949.23,4196.41,4194.36,2044,2037,93.383,0,0,0,0,
50,4175.38,4175.38,4181.03,4183.08,4182.56,4180.51,4182.05,4186.15,4186.67,4188.72,4238.97,4943.08,4180,4185.64,2044,2038,93.41,0,0,0,0,
51,4186.67,4182.05,4185.64,4187.18,4181.03,4177.95,4180,4183.08,4186.67,4189.74,4240.51,4950.26,4186.15,4194.36,2044,2038,93.415,0,0,0,0,
52,4187.18,4186.67,4183.08,4182.56,4178.97,4177.44,4177.44,4185.13,4190.26,4194.87,4239.49,4950.77,4193.33,4195.38,2043,2038,93.415,0,0,0,0,
53,4171.79,4177.95,4184.1,4184.1,4184.1,4185.64,4183.08,4180.51,4183.59,4192.82,4237.95,4948.21,4177.95,4187.18,2045,2038,93.419,0,0,0,0,
54,4192.82,4186.15,4185.13,4181.54,4177.44,4179.49,4172.31,4181.54,4187.69,4190.77,4243.59,4946.15,4194.36,4196.41,2044,2038,93.422,0,0,0,0,
55,4177.95,4180,4181.03,4181.54,4182.05,4181.54,4184.1,4185.13,4186.15,4191.79,4240.51,4945.13,4182.05,4185.64,2044,2037,93.43,0,0,0,0,
56,4183.08,4186.15,4184.1,4187.18,4181.54,4182.05,4181.03,4183.08,4185.13,4193.85,4243.59,4952.82,4182.05,4191.79,2046,2039,93.439,0,0,0,0,
57,4187.18,4184.62,4181.54,4181.54,4176.92,4178.46,4171.79,4187.18,4192.82,4192.82,4239.49,4945.13,4190.26,4195.9,2045,2039,93.446,0,0,0,0,
58,4171.79,4174.36,4183.59,4183.08,4183.08,4182.05,4182.56,4185.64,4184.1,4189.23,4237.44,4946.15,4177.44,4184.1,2044,2038,93.454,0,0,0,0,
59,4191.79,4188.72,4186.15,4184.1,4177.44,4175.38,4175.9,4180.51,4185.64,4192.31,4246.67,4951.28,4193.85,4195.9,2044,2037,93.467,0,0,0,0,
60,4178.97,4182.05,4183.59,4182.05,4181.03,4180,4181.54,4182.05,4188.72,4190.26,4238.46,4943.59,4182.56,4188.21,2044,2039,93.47,0,0,0,0,
61,4182.05,4182.05,4188.72,4184.1,4183.59,4183.59,4179.49,4184.62,4183.59,4189.23,4238.97,4951.28,4179.49,4186.67,2043,2038,93.477,0,0,0,0,
62,4187.69,4186.15,4181.54,4180.51,4181.03,4176.92,4173.33,4189.23,4187.69,4194.36,4242.56,4949.23,4189.23,4190.77,2044,2039,93.487,0,0,0,0,
63,4171.28,4175.9,4180,4186.67,4186.15,4181.03,4184.62,4183.08,4184.1,4190.77,4238.97,4943.59,4176.41,4184.1,2045,2039,93.5,0,0,0,0,
64,4190.77,4183.59,4185.13,4185.64,4178.97,4179.49,4174.87,4181.03,4186.67,4189.23,4243.08,4950.26,4192.31,4195.38,2045,2038,93.502,0,0,0,0,
65,4176.41,4177.95,4180.51,4180,4179.49,4181.03,4179.49,4188.72,4188.21,4191.28,4241.54,4948.72,4184.1,4188.72,2044,2038,93.509,0,0,0,0,
66,4176.41,4182.05,4183.59,4187.18,4182.56,4181.54,4183.08,4186.67,4181.54,4190.26,4243.08,4950.26,4180.51,4188.72,2044,2038,93.524,0,0,0,0,
67,4189.74,4187.18,4183.59,4184.1,4180,4177.95,4175.9,4184.1,4186.15,4193.85,4238.97,4947.18,4194.36,4195.38,2044,2039,93.527,0,0,0,0,
68,4170.77,4173.33,4186.67,4182.56,4184.62,4184.62,4185.13,4183.08,4187.18,4192.31,4235.38,4947.69,4175.9,4184.62,2045,2037,93.533,0,0,0,0,
69,4188.72,4184.62,4189.74,4183.59,4178.46,4178.46,4177.44,4185.64,4188.72,4188.72,4245.64,4955.9,4188.21,4194.87,2044,2038,93.541,0,0,0,0,
70,4181.03,4182.05,4181.03,4180.51,4180,4177.44,4181.03,4187.69,4185.13,4187.18,4238.97,4949.74,4186.15,4190.77,2044,2039,93.548,0,0,0,0,
71,4175.9,4178.97,4184.62,4184.62,4185.13,4182.56,4183.08,4180.51,4179.49,4187.18,4234.87,4950.26,4180.51,4188.21,2044,2038,93.556,0,0,0,0,
72,4188.72,4187.18,4183.59,4181.54,4180.51,4177.95,4177.44,4183.59,4188.21,4189.74,4240,4946.67,4193.85,4194.36,2044,2039,93.564,0,0,0,0,
73,4173.33,4177.44,4181.03,4183.59,4183.08,4181.03,4187.18,4185.64,4184.1,4189.23,4237.44,4946.15,4177.44,4185.13,2044,2038,93.572,0,0,0,0,
74,4189.74,4186.15,4185.64,4186.15,4177.95,4179.49,4176.41,4181.03,4184.1,4191.28,4242.56,4952.82,4190.77,4195.9,2043,2038,93.58,0,0,0,0,
75,4181.54,4183.08,4181.54,4184.1,4179.49,4180.51,4179.49,4183.59,4187.69,4191.28,4238.97,4944.1,4188.21,4191.28,2044,2039,93.591,0,0,0,0,
76,4176.41,4176.92,4183.59,4187.18,4181.54,4181.03,4185.13,4184.1,4181.03,4188.21,4239.49,4948.21,4176.41,4187.18,2044,2039,93.596,0,0,0,0,
77,4193.85,4183.59,4182.05,4183.08,4175.9,4175.38,4172.31,4186.67,4188.21,4190.77,4244.1,4951.28,4192.82,4195.9,2044,2037,93.603,0,0,0,0,
78,4173.33,4175.38,4184.1,4184.1,4184.1,4184.62,4183.59,4186.15,4188.72,4189.23,4237.95,4946.67,4178.46,4183.59,2045,2037,93.611,0,0,0,0,
79,4185.64,4185.13,4190.26,4185.64,4181.54,4181.03,4181.03,4183.59,4185.13,4189.74,4240,4948.21,4184.62,4192.31,2043,2039,93.619,0,0,0,0,
80,4184.62,4182.05,4181.54,4182.05,4179.49,4174.87,4179.49,4187.18,4185.13,4190.77,4237.95,4943.59,4186.15,4192.31,2043,2038,93.627,0,0,0,0,
81,4175.9,4177.44,4183.08,4187.69,4185.13,4182.56,4185.13,4183.59,4180.51,4187.18,4240.51,4950.26,4178.46,4187.18,2044,2038,93.635,0,0,0,0,
82,4191.79,4187.69,4185.13,4183.08,4179.49,4178.97,4175.9,4184.1,4189.23,4189.74,4245.13,4951.28,4195.9,4195.9,2045,2038,93.643,0,0,0,0,
83,4174.36,4177.95,4179.49,4182.05,4181.54,4179.49,4183.08,4186.15,4188.72,4189.23,4238.46,4944.62,4180.51,4184.62,2044,2038,93.651,0,0,0,0,
84,4187.18,4188.21,4183.08,4187.18,4178.46,4178.97,4178.97,4184.62,4184.62,4189.23,4244.1,4951.79,4184.62,4192.31,2044,2038,93.659,0,0,0,0,
85,4186.15,4186.15,4183.08,4179.49,4180.51,4180,4177.95,4185.13,4189.23,4191.28,4242.05,4947.69,4188.72,4191.79,2044,2037,93.666,0,0,0,0,
86,4172.82,4172.31,4186.67,4183.59,4186.67,4184.1,4184.62,4181.03,4185.13,4190.26,4237.95,4948.72,4177.95,4185.13,2044,2038,93.674,0,0,0,0,
87,4194.87,4182.05,4185.64,4185.13,4179.49,4177.95,4175.38,4186.15,4189.74,4191.79,4244.1,4952.31,4196.41,4196.92,2045,2039,93.682,0,0,0,0,
88,4180,4176.92,4183.59,4181.03,4183.59,4183.08,4183.59,4191.28,4186.67,4190.26,4236.41,4945.64,4182.56,4186.67,2044,2037,93.69,0,0,0,0,
89,4186.15,4182.05,4189.23,4180,4182.05,4181.03,4178.97,4182.05,4183.08,4191.28,4237.95,4950.77,4185.13,4189.74,2044,2038,93.698,0,0,0,0,
90,4187.18,4182.56,4182.05,4176.92,4177.95,4175.9,4176.41,4182.56,4191.28,4191.79,4242.05,4948.21,4193.33,4192.31,2044,2037,93.734,0,0,0,0,
91,4172.31,4175.9,4182.56,4185.13,4182.56,4183.59,4187.69,4186.15,4186.67,4185.64,4240.51,4948.21,4177.44,4187.18,2044,2037,93.734,0,0,0,0,
92,4192.31,4191.28,4186.67,4184.62,4176.41,4177.95,4174.36,4186.67,4186.67,4187.69,4242.05,4951.79,4191.28,4197.95,2045,2037,93.734,0,0,0,0,
93,4175.9,4181.03,4182.05,4180.51,4183.08,4181.54,4181.54,4185.64,4184.62,4190.26,4236.41,4944.62,4181.54,4185.13,2044,2038,93.734,0,0,0,0,
94,4182.56,4178.97,4186.15,4184.1,4184.62,4183.59,4181.03,4184.1,4181.54,4190.26,4241.54,4949.23,4184.62,4188.21,2045,2039,93.738,0,0,0,0,
95,4191.28,4184.62,4183.08,4181.03,4177.95,4176.92,4173.33,4187.18,4189.23,4191.79,4242.56,4950.26,4193.85,4195.38,2045,2038,93.757,0,0,0,0,
96,4172.31,4177.95,4184.1,4185.13,4183.08,4183.59,4187.18,4184.1,4185.64,4188.21,4235.9,4951.28,4175.9,4184.62,2045,2037,93.76,0,0,0,0,
97,4189.74,4186.15,4186.15,4184.1,4180.51,4181.54,4179.49,4183.08,4187.69,4189.23,4240,4952.31,4190.77,4192.31,2045,2038,93.762,0,0,0,0,
98,4177.95,4177.44,4178.46,4180,4183.59,4181.03,4178.97,4184.62,4187.18,4192.82,4236.41,4944.62,4181.54,4188.21,2045,2038,93.769,0,0,0,0,
99,4181.03,4180.51,4183.59,4185.13,4186.15,4179.49,4177.95,4180,4181.54,4192.31,4238.97,4951.79,4177.95,4191.79,2045,2037,93.781,0,0,0,0,
100,4190.77,4187.69,4184.62,4182.05,4180.51,4175.38,4177.44,4183.59,4190.77,4190.77,4238.97,4948.72,4192.31,4195.38,2044,2038,93.785,0,0,0,0,
101,4172.82,4177.44,4183.59,4183.08,4183.08,4182.56,4188.21,4183.08,4187.18,4186.67,4235.38,4944.62,4176.92,4183.08,2043,2038,93.799,0,0,0,0,
102,4194.36,4187.18,4184.62,4183.59,4180.51,4180.51,4177.44,4180,4184.62,4189.74,4243.59,4950.26,4190.26,4193.85,2044,2038,93.803,0,0,0,0,
103,4185.64,4181.54,4181.54,4180.51,4184.1,4181.54,4182.56,4184.1,4187.69,4193.33,4237.95,4947.18,4185.13,4188.21,2045,2038,93.808,0,0,0,0,
104,4178.97,4180.51,4187.18,4185.64,4183.59,4184.1,4186.15,4183.59,4185.13,4193.85,4237.95,4951.28,4180,4186.15,2044,2038,93.816,0,0,0,0,
105,4189.74,4186.15,4185.13,4182.05,4178.46,4178.97,4177.95,4185.64,4188.21,4192.31,4240.51,4947.18,4192.31,4193.85,2043,2037,93.832,0,0,0,0,
106,4173.33,4174.87,4183.59,4183.59,4186.15,4184.1,4186.15,4185.13,4182.56,4187.69,4235.9,4947.18,4174.36,4184.1,2043,2039,93.836,0,0,0,0,
107,4189.74,4183.08,4186.67,4186.15,4179.49,4178.97,4174.36,4184.1,4186.15,4191.28,4243.59,4954.87,4188.21,4193.33,2043,2039,93.84,0,0,0,0,
108,4179.49,4180.51,4178.97,4182.56,4180.51,4178.46,4178.97,4187.69,4190.26,4193.85,4238.97,4945.64,4186.15,4189.23,2044,2037,93.851,0,0,0,0,
109,4173.33,4181.03,4184.1,4187.18,4187.69,4185.64,4187.18,4182.56,4184.1,4191.28,4237.44,4948.72,4176.92,4184.62,2045,2037,93.856,0,0,0,0,
110,4190.26,4187.69,4185.64,4183.08,4181.03,4182.56,4172.31,4183.08,4189.23,4193.85,4242.56,4951.79,4192.31,4192.31,2045,2039,93.878,0,0,0,0,
111,4171.28,4173.33,4182.56,4181.54,4183.59,4185.64,4178.46,4185.64,4186.67,4193.85,4237.44,4945.13,4176.92,4183.59,2046,2038,93.878,0,0,0,0,
112,4186.15,4182.56,4186.15,4185.64,4181.54,4182.05,4177.44,4184.62,4187.69,4194.87,4242.05,4949.74,4186.67,4194.36,2045,2038,93.886,0,0,0,0,
113,4181.54,4184.1,4182.05,4181.54,4181.03,4182.05,4182.56,4185.64,4191.28,4194.36,4241.03,4948.21,4188.72,4191.79,2044,2038,93.889,0,0,0,0,
114,4170.77,4180,4184.62,4184.62,4182.56,4188.21,4187.69,4182.05,4183.08,4189.74,4240,4950.26,4178.46,4185.13,2045,2039,93.895,0,0,0,0,
115,4189.74,4188.21,4182.56,4180.51,4176.92,4181.03,4172.82,4184.62,4189.23,4191.28,4241.54,4949.23,4190.77,4195.38,2044,2038,93.904,0,0,0,0,
116,4173.85,4177.44,4179.49,4182.56,4183.08,4184.1,4180,4184.1,4189.23,4190.26,4235.9,4946.67,4176.41,4185.64,2045,2039,93.911,0,0,0,0,
117,4187.69,4185.13,4186.15,4188.21,4181.03,4183.08,4179.49,4181.03,4183.59,4190.77,4240,4953.33,4188.21,4191.28,2045,2038,93.919,0,0,0,0,
118,4188.72,4183.59,4182.56,4181.03,4180,4178.46,4180,4186.67,4184.62,4193.85,4238.46,4947.69,4190.77,4190.26,2044,2038,93.928,0,0,0,0,
119,4176.92,4176.41,4184.62,4183.08,4185.13,4181.54,4183.59,4184.62,4180,4192.31,4237.44,4950.26,4174.36,4184.62,2045,2039,93.934,0,0,0,0,
120,4194.36,4189.23,4184.1,4183.59,4178.97,4176.92,4172.82,4184.1,4186.15,4192.82,4242.56,4951.79,4189.74,4195.9,2045,2037,93.943,0,0,0,0,
121,4176.41,4180,4179.49,4183.59,4183.08,4182.05,4184.1,4182.56,4188.21,4191.79,4239.49,4943.08,4178.46,4185.13,2044,2038,93.952,0,0,0,0,
122,4184.1,4181.54,4185.64,4186.15,4182.05,4182.56,4181.03,4178.97,4186.15,4191.79,4245.13,4949.74,4184.62,4189.23,2045,2037,93.958,0,0,0,0,
123,4186.67,4181.03,4183.59,4181.54,4179.49,4181.54,4177.44,4186.67,4187.18,4193.33,4242.05,4948.21,4191.28,4191.28,2044,2039,93.966,0,0,0,0,
124,4174.36,4175.38,4186.15,4184.62,4183.59,4185.13,4186.15,4185.64,4181.03,4189.74,4237.44,4947.69,4176.41,4184.62,2044,2038,93.974,0,0,0,0,
125,4195.38,4187.18,4186.15,4182.05,4177.44,4179.49,4174.36,4181.03,4188.72,4190.77,4244.1,4948.72,4193.85,4197.44,2044,2037,93.982,0,0,0,0,
126,4179.49,4175.9,4181.03,4180,4181.54,4186.15,4185.13,4181.54,4187.69,4190.77,4240.51,4943.08,4184.1,4187.18,2044,2038,93.99,0,0,0,0,
127,4184.62,4179.49,4188.21,4185.64,4183.08,4186.67,4184.62,4181.54,4181.03,4191.28,4243.59,4949.74,4185.64,4188.72,2044,2038,93.998,0,0,0,0,
128,4189.74,4185.64,4186.15,4182.05,4180,4178.97,4175.38,4186.15,4187.18,4193.85,4242.56,4947.18,4192.82,4193.85,2044,2039,94.005,0,0,0,0,
0,4173.33,4174.87,4184.62,4184.62,4184.62,4184.1,4184.62,4184.1,4184.1,4188.72,4237.95,4946.67,4175.9,4185.64,2045,2038,94.013,0,0,0,0,
1,4193.33,4184.62,4186.15,4184.62,4180,4177.95,4176.92,4183.59,4189.23,4189.23,4245.13,4952.82,4192.31,4194.87,2044,2038,94.022,0,0,0,0,
2,4178.46,4179.49,4182.56,4184.62,4183.08,4178.97,4182.56,4186.15,4191.28,4191.79,4240.51,4947.18,4185.13,4187.69,2044,2038,94.033,0,0,0,0,
3,4180,4181.54,4185.64,4189.74,4180,4181.54,4183.08,4183.59,4185.64,4191.28,4242.05,4949.74,4182.05,4191.28,2045,2038,94.037,0,0,0,0,
4,4189.74,4187.18,4183.08,4182.56,4175.9,4177.95,4177.95,4184.1,4188.72,4192.82,4242.05,4945.64,4191.28,4194.36,2045,2037,94.045,0,0,0,0,
5,4170.77,4179.49,4185.64,4184.62,4184.62,4184.1,4186.67,4181.03,4185.13,4190.77,4237.44,4944.1,4176.92,4184.1,2046,2037,94.053,0,0,0,0,
6,4189.23,4188.21,4187.69,4185.64,4177.44,4178.46,4178.46,4184.1,4187.69,4192.31,4244.1,4949.23,4191.28,4195.9,2045,2037,94.061,0,0,0,0,
7,4182.56,4178.46,4180.51,4180.51,4179.49,4179.49,4182.05,4189.74,4186.67,4189.74,4238.97,4944.62,4182.56,4188.21,2045,2038,94.07,0,0,0,0,
8,4183.59,4178.46,4186.15,4186.15,4185.64,4183.08,4183.08,4183.08,4181.03,4185.64,4238.97,4948.21,4180.51,4188.72,2044,2038,94.077,0,0,0,0,
9,4189.74,4184.1,4186.15,4182.56,4182.05,4178.97,4178.46,4182.56,4190.77,4189.23,4242.56,4943.59,4195.38,4195.9,2044,2037,94.085,0,0,0,0,
10,4170.26,4173.85,4183.08,4180.51,4186.67,4185.64,4189.74,4183.59,4187.18,4191.28,4238.97,4943.59,4176.41,4184.1,2045,2037,94.092,0,0,0,0,
11,4192.31,4186.15,4186.15,4182.56,4182.05,4182.56,4177.95,4184.62,4188.21,4190.77,4243.59,4951.79,4188.72,4192.31,2044,2039,94.105,0,0,0,0,
12,4182.56,4181.03,4182.05,4183.59,4183.08,4181.03,4178.97,4188.21,4193.33,4189.23,4237.95,4941.54,4187.69,4187.18,2045,2038,94.108,0,0,0,0,
13,4177.44,4174.36,4184.1,4189.74,4185.64,4183.08,4183.59,4182.05,4186.15,4190.26,4238.46,4944.1,4181.03,4188.21,2044,2038,94.116,0,0,0,0,
14,4193.33,4184.1,4180,4182.56,4180.51,4176.92,4174.87,4184.62,4188.72,4191.79,4242.56,4950.26,4195.38,4197.44,2045,2038,94.124,0,0,0,0,
15,4171.28,4176.41,4178.46,4183.59,4186.15,4183.08,4186.67,4187.69,4186.67,4188.72,4236.92,4947.18,4178.97,4183.08,2044,2038,94.131,0,0,0,0,
16,4185.64,4182.56,4185.13,4188.72,4184.1,4180,4180,4183.08,4186.15,4192.31,4242.56,4948.72,4189.74,4190.26,2045,2039,94.139,0,0,0,0,
17,4184.62,4177.44,4182.56,4183.59,4182.05,4177.44,4180.51,4182.56,4189.23,4193.85,4240,4946.67,4189.74,4191.28,2045,2039,94.147,0,0,0,0,
18,4177.44,4175.9,4186.15,4185.64,4182.05,4182.05,4186.67,4182.56,4185.64,4188.21,4240.51,4951.28,4178.97,4185.64,2043,2038,94.155,0,0,0,0,
19,4191.28,4187.69,4183.08,4182.56,4176.41,4179.49,4174.87,4186.67,4191.79,4188.21,4244.62,4947.18,4194.87,4192.82,2044,2037,94.163,0,0,0,0,
20,4172.82,4177.44,4177.95,4182.56,4184.1,4185.64,4183.08,4186.15,4187.69,4188.72,4237.44,4941.54,4180,4187.18,2045,2036,94.171,0,0,0,0,
21,4186.15,4182.56,4184.1,4185.13,4181.03,4181.03,4178.46,4181.54,4186.15,4192.31,4242.56,4950.26,4187.18,4195.9,2045,2038,94.179,0,0,0,0,
22,4184.1,4178.97,4181.54,4181.54,4179.49,4178.46,4178.46,4184.62,4190.26,4191.79,4242.05,4945.13,4190.77,4189.74,2044,2038,94.187,0,0,0,0,
23,4174.87,4175.9,4183.08,4186.67,4185.13,4186.67,4187.18,4183.08,4184.1,4185.64,4237.95,4946.67,4178.46,4184.1,2044,2038,94.195,0,0,0,0,
24,4192.82,4189.74,4183.08,4185.13,4177.95,4180.51,4177.44,4183.59,4189.23,4188.72,4241.54,4952.31,4191.28,4201.03,2045,2039,94.203,0,0,0,0,
25,4174.36,4175.9,4180.51,4185.64,4179.49,4181.54,4184.62,4185.64,4186.15,4190.26,4238.97,4948.72,4177.44,4190.77,2045,2038,94.21,0,0,0,0,
26,4184.62,4182.05,4184.62,4186.67,4179.49,4181.03,4180.51,4184.62,4183.08,4189.23,4242.56,4948.21,4186.67,4190.26,2045,2039,94.218,0,0,0,0,
27,4186.67,4186.15,4180.51,4181.03,4180,4178.97,4177.44,4188.21,4190.26,4191.28,4240,4943.08,4192.82,4189.74,2045,2038,94.226,0,0,0,0,
28,4173.85,4176.41,4184.1,4186.15,4184.1,4181.54,4185.64,4186.15,4185.13,4189.74,4237.95,4949.74,4177.95,4185.64,2044,2038,94.235,0,0,0,0,
29,4191.79,4184.1,4185.13,4184.1,4177.44,4175.9,4177.44,4184.62,4188.21,4191.28,4241.03,4951.79,4194.36,4194.87,2045,2038,94.242,0,0,0,0,
30,4174.87,4177.95,4181.54,4180.51,4183.59,4183.08,4183.59,4185.13,4186.67,4191.79,4236.92,4942.05,4182.05,4184.62,2044,2039,94.25,0,0,0,0,
31,4185.64,4183.08,4187.69,4185.64,4182.56,4183.59,4179.49,4184.1,4183.59,4191.79,4243.08,4951.79,4182.05,4192.31,2045,2038,94.258,0,0,0,0,
32,4189.74,4183.59,4181.03,4182.05,4178.46,4176.41,4178.46,4187.69,4190.26,4192.82,4241.03,4950.77,4190.77,4194.87,2044,2037,94.265,0,0,0,0,
33,4170.77,4174.87,4180.51,4186.15,4184.62,4182.05,4188.21,4185.13,4186.67,4190.26,4234.36,4946.15,4178.97,4182.56,2045,2038,94.273,0,0,0,0,
34,4191.28,4188.21,4186.15,4186.15,4178.46,4180,4173.85,4186.15,4188.21,4192.31,4242.05,4949.23,4194.36,4195.9,2045,2037,94.281,0,0,0,0,
35,4177.44,4181.03,4183.59,4183.59,4183.08,4182.56,4181.03,4188.72,4187.69,4192.31,4239.49,4945.64,4182.05,4190.26,2044,2037,94.289,0,0,0,0,
36,4178.46,4180.51,4187.18,4185.64,4182.56,4181.54,4183.59,4182.56,4184.62,4188.72,4240.51,4948.72,4184.1,4189.23,2044,2038,94.297,0,0,0,0,
37,4189.23,4185.13,4184.1,4181.54,4176.92,4177.95,4176.92,4184.1,4187.69,4188.21,4240,4946.15,4195.9,4192.31,2044,2038,94.305,0,0,0,0,
38,4176.92,4176.92,4185.64,4185.13,4185.13,4184.62,4185.13,4182.05,4181.03,4188.72,4236.92,4947.69,4178.46,4184.1,2044,2038,94.313,0,0,0,0,
39,4192.82,4184.62,4187.18,4181.03,4179.49,4178.97,4172.82,4182.05,4184.1,4193.33,4242.56,4950.26,4192.31,4195.9,2045,2037,94.322,0,0,0,0,
40,4175.9,4176.41,4180.51,4175.9,4181.03,4183.08,4179.49,4186.15,4186.67,4192.31,4235.9,4944.62,4184.1,4188.21,2045,2037,94.329,0,0,0,0,
41,4180.51,4177.44,4185.64,4186.15,4185.13,4189.23,4186.15,4181.54,4183.59,4188.72,4240,4951.79,4181.03,4185.64,2045,2038,94.336,0,0,0,0,
42,4192.31,4184.1,4184.1,4185.13,4180,4181.54,4177.44,4183.59,4188.72,4191.28,4243.08,4949.74,4193.85,4191.79,2045,2037,94.344,0,0,0,0,
43,4169.74,4176.92,4183.08,4184.1,4182.05,4181.54,4184.1,4184.62,4182.05,4187.69,4236.41,4947.69,4176.41,4185.64,2045,2037,94.352,0,0,0,0,
44,4190.77,4187.69,4188.21,4184.62,4178.97,4179.49,4177.95,4183.59,4184.62,4187.18,4242.05,4954.87,4190.77,4197.95,2045,2037,94.36,0,0,0,0,
45,4184.62,4182.05,4184.62,4182.05,4182.05,4182.56,4184.62,4185.64,4190.26,4190.26,4240,4949.23,4185.64,4191.28,2045,2039,94.368,0,0,0,0,
46,4178.97,4182.56,4188.72,4187.69,4184.1,4183.08,4186.67,4182.05,4185.13,4192.31,4241.03,4951.28,4178.46,4186.67,2045,2039,94.376,0,0,0,0,
47,4192.31,4189.23,4187.18,4184.62,4178.97,4178.46,4177.44,4184.62,4189.74,4192.31,4243.08,4947.69,4193.85,4193.85,2044,2038,94.384,0,0,0,0,
48,4172.82,4175.9,4186.15,4186.15,4183.59,4186.15,4186.67,4186.67,4187.18,4186.67,4237.95,4942.56,4178.46,4183.59,2044,2037,94.391,0,0,0,0,
49,4187.18,4186.67,4189.74,4187.18,4181.03,4181.03,4178.46,4183.08,4187.18,4190.26,4243.08,4949.23,4189.23,4191.28,2044,2037,94.399,0,0,0,0,
50,4182.05,4183.59,4181.54,4181.54,4182.56,4181.03,4180.51,4183.59,4189.23,4193.85,4237.44,4945.13,4187.69,4186.67,2045,2038,94.408,0,0,0,0,
51,4176.92,4177.44,4184.62,4186.15,4184.1,4187.18,4183.59,4184.1,4181.54,4189.23,4236.92,4949.23,4178.97,4185.64,2044,2039,94.415,0,0,0,0,
52,4191.79,4187.69,4187.69,4183.59,4178.46,4178.97,4171.79,4186.15,4186.67,4189.23,4243.08,4950.77,4193.33,4197.44,2045,2037,94.423,0,0,0,0,
53,4173.33,4179.49,4185.13,4183.08,4183.59,4183.59,4183.08,4183.08,4187.18,4188.21,4236.92,4946.67,4178.46,4185.13,2046,2038,94.432,0,0,0,0,
54,4187.69,4186.67,4187.69,4184.1,4177.95,4182.05,4180.51,4182.56,4185.64,4187.69,4240,4951.28,4189.23,4191.79,2044,2040,94.439,0,0,0,0,
55,4183.59,4182.56,4184.1,4181.03,4181.03,4179.49,4181.03,4188.72,4186.67,4190.26,4239.49,4944.62,4189.74,4190.77,2045,2039,94.447,0,0,0,0,
56,4177.44,4174.87,4186.15,4187.69,4187.18,4184.1,4185.13,4182.05,4181.03,4191.79,4237.95,4945.64,4178.97,4186.67,2044,2036,94.455,0,0,0,0,
57,4196.92,4185.64,4185.13,4185.64,4175.9,4177.44,4175.9,4181.03,4189.23,4193.33,4240.51,4948.21,4194.87,4195.9,2045,2037,94.462,0,0,0,0,
58,4171.79,4178.46,4184.1,4183.08,4181.03,4181.54,4187.69,4184.62,4188.72,4190.77,4236.92,4944.62,4177.44,4184.1,2044,2036,94.47,0,0,0,0,
59,4181.54,4185.64,4189.23,4184.1,4183.08,4183.08,4182.05,4181.54,4186.15,4190.26,4242.05,4951.28,4184.1,4190.26,2045,2037,94.479,0,0,0,0,
60,4188.21,4185.13,4183.08,4180.51,4178.46,4179.49,4177.95,4185.64,4191.28,4191.28,4238.46,4946.67,4191.79,4192.31,2045,2039,94.486,0,0,0,0,
61,4176.41,4178.97,4186.15,4186.15,4182.05,4183.08,4186.67,4185.13,4187.69,4189.23,4236.41,4947.18,4177.44,4184.1,2044,2038,94.494,0,0,0,0,
62,4191.79,4187.69,4186.67,4182.56,4179.49,4180,4177.95,4185.64,4191.79,4191.79,4242.56,4952.31,4192.31,4193.33,2044,2038,94.503,0,0,0,0,
63,4175.38,4176.41,4181.03,4180.51,4183.08,4182.56,4183.59,4184.62,4187.69,4190.77,4237.44,4948.21,4181.54,4183.59,2044,2039,94.51,0,0,0,0,
64,4184.62,4182.05,4186.67,4187.18,4182.56,4178.97,4178.46,4180,4184.62,4190.26,4241.03,4950.77,4184.62,4189.23,2044,2040,94.518,0,0,0,0,
65,4186.67,4185.13,4184.1,4183.59,4182.05,4177.95,4176.41,4184.62,4190.26,4194.36,4240,4945.64,4190.26,4192.82,2045,2037,94.526,0,0,0,0,
66,4171.28,4176.92,4185.13,4185.64,4184.1,4186.67,4186.67,4185.13,4183.08,4191.79,4239.49,4948.72,4178.46,4185.13,2045,2038,94.533,0,0,0,0,
67,4192.31,4187.69,4186.15,4186.15,4176.41,4180,4174.87,4183.59,4186.67,4189.74,4247.69,4950.26,4194.87,4192.82,2044,2038,94.541,0,0,0,0,
68,4178.97,4180,4181.54,4186.15,4182.05,4181.54,4180,4185.13,4190.77,4189.74,4237.95,4941.03,4180.51,4182.56,2043,2038,94.549,0,0,0,0,
69,4184.1,4184.1,4185.64,4189.23,4182.05,4181.54,4180.51,4184.62,4186.67,4189.23,4237.95,4949.74,4181.54,4187.69,2045,2039,94.557,0,0,0,0,
70,4190.26,4185.64,4182.05,4182.56,4178.46,4176.92,4175.9,4185.64,4187.18,4188.72,4243.59,4949.23,4193.33,4191.79,2044,2038,94.565,0,0,0,0,
71,4173.85,4173.85,4183.08,4186.15,4185.13,4185.13,4186.67,4182.05,4181.54,4187.69,4241.03,4947.69,4175.9,4181.03,2044,2037,94.573,0,0,0,0,
72,4192.82,4186.15,4186.67,4186.15,4178.97,4180.51,4176.41,4185.64,4186.15,4191.28,4241.54,4949.74,4188.72,4193.33,2044,2037,94.581,0,0,0,0,
73,4177.95,4178.46,4181.03,4181.03,4182.56,4181.54,4180,4190.77,4189.23,4188.72,4235.38,4944.1,4182.05,4185.64,2045,2038,94.588,0,0,0,0,
74,4178.46,4176.41,4185.64,4184.62,4186.67,4184.1,4184.1,4186.67,4185.64,4187.18,4240.51,4950.26,4180.51,4185.64,2045,2037,94.597,0,0,0,0,
75,4190.77,4185.13,4183.59,4181.54,4181.54,4178.46,4178.97,4187.18,4189.74,4191.28,4242.05,4948.72,4190.26,4192.82,2044,2037,94.615,0,0,0,0,
76,4173.33,4178.46,4182.05,4184.1,4184.62,4184.62,4187.18,4185.64,4186.15,4188.72,4235.9,4945.64,4173.85,4183.08,2044,2038,94.619,0,0,0,0,
77,4188.72,4186.67,4184.62,4185.13,4178.97,4180.51,4175.9,4184.62,4190.26,4189.74,4240.51,4949.74,4190.77,4190.26,2044,2039,94.638,0,0,0,0,
78,4178.97,4177.95,4181.03,4182.56,4181.54,4179.49,4181.54,4186.67,4189.74,4192.31,4236.92,4946.67,4184.1,4185.64,2044,2038,94.638,0,0,0,0,
79,4180,4177.44,4188.21,4188.21,4186.15,4183.59,4185.13,4182.05,4181.03,4189.74,4238.97,4949.74,4177.44,4187.18,2044,2038,94.651,0,0,0,0,
80,4192.82,4185.64,4186.15,4182.05,4178.97,4182.05,4177.44,4184.1,4189.74,4187.69,4241.54,4946.67,4192.82,4190.77,2044,2037,94.654,0,0,0,0,
81,4174.36,4175.9,4182.05,4184.1,4182.05,4185.13,4189.23,4183.59,4187.69,4188.21,4238.97,4948.21,4175.9,4177.44,2044,2038,94.654,0,0,0,0,
82,4190.77,4184.1,4185.64,4187.69,4179.49,4180,4180,4181.54,4185.64,4193.33,4246.67,4955.9,4188.72,4189.74,2045,2039,94.659,0,0,0,0,
83,4180.51,4177.95,4183.59,4182.56,4181.03,4182.56,4179.49,4186.67,4190.77,4192.82,4240,4945.64,4188.21,4189.23,2044,2038,94.667,0,0,0,0,
84,4177.44,4177.44,4186.67,4186.67,4181.03,4185.13,4183.59,4186.15,4187.18,4188.21,4237.44,4947.69,4179.49,4184.62,2045,2038,94.675,0,0,0,0,
85,4196.41,4187.69,4184.1,4184.1,4176.92,4178.46,4175.38,4188.72,4190.77,4192.82,4242.05,4949.74,4191.79,4191.79,2044,2038,94.685,0,0,0,0,
86,4175.9,4174.36,4182.05,4182.56,4184.62,4184.62,4185.13,4188.72,4187.18,4192.82,4235.38,4945.64,4177.44,4185.13,2043,2039,94.692,0,0,0,0,
87,4188.21,4182.56,4187.18,4184.62,4181.54,4179.49,4177.95,4185.13,4188.21,4188.21,4238.46,4953.85,4189.23,4197.44,2044,2038,94.701,0,0,0,0,
88,4185.13,4183.08,4182.56,4184.1,4182.56,4178.46,4178.97,4187.69,4190.26,4189.23,4237.95,4948.72,4186.67,4190.77,2045,2039,94.709,0,0,0,0,
89,4178.46,4180.51,4185.64,4188.21,4185.64,4187.18,4185.64,4183.59,4183.08,4190.77,4238.46,4947.69,4174.87,4182.05,2044,2038,94.717,0,0,0,0,
90,4194.36,4188.21,4185.13,4182.56,4176.92,4181.03,4175.9,4183.08,4189.74,4192.82,4241.03,4950.77,4193.85,4194.36,2044,2038,94.724,0,0,0,0,
91,4172.82,4176.92,4182.56,4183.08,4183.59,4183.08,4184.62,4184.1,4189.23,4189.23,4237.44,4950.26,4180.51,4184.62,2044,2039,94.731,0,0,0,0,
92,4187.18,4184.62,4188.21,4186.67,4181.54,4182.56,4178.97,4182.56,4187.69,4189.23,4243.08,4952.82,4186.67,4187.18,2043,2038,94.738,0,0,0,0,
93,4187.69,4181.54,4184.62,4181.03,4179.49,4180,4176.41,4185.64,4189.23,4192.31,4238.46,4947.18,4190.26,4186.67,2045,2037,94.746,0,0,0,0,
94,4174.87,4173.85,4187.69,4183.08,4186.15,4182.05,4183.08,4181.54,4182.56,4188.72,4234.87,4950.26,4178.46,4185.64,2044,2037,94.755,0,0,0,0,
95,4192.82,4187.69,4185.64,4182.56,4177.95,4177.44,4173.33,4182.05,4189.23,4188.72,4241.03,4948.21,4193.33,4196.92,2045,2038,94.763,0,0,0,0,
96,4174.87,4180,4180.51,4184.62,4178.46,4184.62,4184.1,4186.15,4188.21,4189.74,4237.44,4941.54,4178.97,4183.59,2044,2038,94.772,0,0,0,0,
97,4185.64,4182.05,4188.21,4188.72,4177.44,4182.56,4180.51,4184.1,4185.64,4190.26,4242.05,4951.79,4185.64,4191.28,2045,2038,94.78,0,0,0,0,
98,4189.74,4183.59,4184.1,4180.51,4176.92,4176.92,4174.87,4186.15,4192.31,4192.31,4240.51,4947.18,4192.31,4194.87,2046,2038,94.789,0,0,0,0,
99,4172.31,4176.41,4182.05,4183.59,4183.08,4183.59,4183.59,4184.1,4185.13,4189.74,4236.92,4944.62,4175.38,4183.08,2044,2037,94.794,0,0,0,0,
100,4191.28,4187.18,4186.15,4183.59,4178.97,4178.97,4172.31,4182.05,4186.15,4190.26,4243.08,4948.72,4191.28,4193.85,2044,2039,94.801,0,0,0,0,
101,4179.49,4180,4184.62,4182.56,4181.03,4180.51,4180,4185.13,4187.18,4191.28,4241.03,4944.62,4182.56,4188.72,2045,2038,94.81,0,0,0,0,
102,4184.62,4184.62,4186.67,4185.64,4179.49,4180,4182.05,4185.64,4184.62,4192.31,4245.13,4949.23,4184.1,4188.72,2044,2038,94.818,0,0,0,0,
103,4188.21,4186.15,4182.05,4180,4179.49,4177.44,4177.95,4186.67,4189.23,4191.79,4243.08,4947.69,4190.26,4190.26,2045,2037,94.826,0,0,0,0,
104,4173.33,4175.9,4184.1,4182.05,4185.64,4182.56,4185.64,4183.59,4183.59,4190.77,4240,4946.67,4175.38,4186.67,2043,2038,94.834,0,0,0,0,
105,4192.82,4187.69,4186.67,4180,4177.44,4174.36,4175.38,4184.1,4186.67,4194.87,4246.15,4947.18,4192.31,4197.44,2044,2038,94.841,0,0,0,0,
106,4176.92,4176.92,4182.56,4180,4181.03,4178.46,4184.1,4185.64,4187.18,4189.74,4238.97,4942.05,4182.56,4185.13,2045,2038,94.849,0,0,0,0,
107,4179.49,4176.92,4187.18,4186.67,4182.56,4184.62,4184.62,4180.51,4181.54,4187.18,4241.03,4950.26,4182.05,4188.21,2045,2037,94.858,0,0,0,0,
108,4189.23,4187.69,4183.08,4180.51,4177.95,4180,4177.95,4183.08,4185.13,4194.87,4241.54,4947.18,4193.85,4196.41,2045,2038,94.865,0,0,0,0,
109,4173.85,4178.97,4181.54,4184.1,4185.13,4185.64,4189.74,4182.05,4182.05,4191.28,4236.92,4943.59,4174.87,4184.1,2044,2038,94.873,0,0,0,0,
